File: output/characterization_test_hppc_1.0C.csv
Time [s],Current [A],Power [W],Voltage [V],Capacity [Ah],Energy [Wh]
0.0,1.0,4.15551,4.15566,0.0,0.0
144.527,1.0,4.11209,4.1141,0.0401463,0.165676
295.527,1.0,4.0948,4.09384,0.0820907,0.337765
446.527,1.0,4.08267,4.08289,0.124035,0.50925
597.527,1.0,4.07368,4.07435,0.16598,0.680296
748.527,1.0,4.06703,4.06657,0.207924,0.851017
899.527,1.0,4.06222,4.06169,0.249869,1.0215
1043.48,0.0,0.0,4.11648,0.25,1.02203
1194.48,0.0,0.0,4.12037,0.25,1.02203
1345.48,0.0,0.0,4.12093,0.25,1.02203
1496.48,0.0,0.0,4.12278,0.25,1.02203
1624.8,0.0,0.0,4.10903,0.291667,1.1871
1775.8,0.0,0.0,4.11441,0.291667,1.1871
1926.8,0.0,0.0,4.11485,0.291667,1.1871
2077.8,0.0,0.0,4.11695,0.291667,1.1871
2221.76,1.0,4.06193,4.06309,0.317155,1.29075
2372.76,1.0,4.05709,4.05747,0.3591,1.46101
2523.76,1.0,4.05488,4.05527,0.401044,1.63113
2674.76,1.0,4.05332,4.05304,0.442989,1.80118
2825.76,1.0,4.05178,4.0523,0.484933,1.97116
2976.76,1.0,4.04992,4.04925,0.526878,2.14107
3120.48,0.0,0.0,4.09239,0.541667,2.20096
3271.48,0.0,0.0,4.09546,0.541667,2.20096
3422.48,0.0,0.0,4.0957,0.541667,2.20096
3573.48,0.0,0.0,4.09601,0.541667,2.20096
3701.56,0.0,0.0,4.08473,0.583333,2.36555
3852.56,0.0,0.0,4.09194,0.583333,2.36555
4003.56,0.0,0.0,4.0926,0.583333,2.36555
4154.56,0.0,0.0,4.09459,0.583333,2.36555
4298.77,1.0,4.05233,4.0535,0.594102,2.40921
4449.77,1.0,4.04559,4.04722,0.636047,2.57902
4600.77,1.0,4.04032,4.04222,0.677991,2.7486
4751.77,1.0,4.03459,4.03253,0.719936,2.91795
4902.77,1.0,4.02835,4.02766,0.76188,3.08705
5053.77,1.0,4.02166,4.02259,0.803825,3.25588
5195.96,0.0,0.0,4.06204,0.833333,3.37448
5346.96,0.0,0.0,4.06791,0.833333,3.37448
5497.96,0.0,0.0,4.0682,0.833333,3.37448
5648.96,0.0,0.0,4.07303,0.833333,3.37448
5789.48,5.0,19.4817,3.8951,0.874278,3.53488
5927.63,0.0,0.0,4.06216,0.875,3.5377
6078.63,0.0,0.0,4.06366,0.875,3.5377
6229.63,0.0,0.0,4.06469,0.875,3.5377
6380.63,0.0,0.0,4.06658,0.875,3.5377
6524.77,1.0,4.01101,4.0127,0.912437,3.68815
6675.77,1.0,3.99995,3.99939,0.954381,3.85615
6826.77,1.0,3.99044,3.98892,0.996325,4.02372
6977.77,1.0,3.98164,3.98177,1.03827,4.19091
7128.77,1.0,3.97328,3.97532,1.08021,4.35774
7279.77,1.0,3.96525,3.96736,1.12216,4.52422
7421.95,0.0,0.0,4.01496,1.125,4.53549
7572.95,0.0,0.0,4.01914,1.125,4.53549
7723.95,0.0,0.0,4.02168,1.125,4.53549
7874.95,0.0,0.0,4.02288,1.125,4.53549
8002.57,0.0,0.0,4.00668,1.16667,4.6966
8153.57,0.0,0.0,4.0129,1.16667,4.6966
8304.57,0.0,0.0,4.01624,1.16667,4.6966
8455.57,0.0,0.0,4.01509,1.16667,4.6966
8599.77,1.0,3.96384,3.96525,1.18883,4.78459
8750.77,1.0,3.95084,3.95088,1.23077,4.95056
8901.77,1.0,3.94119,3.94252,1.27271,5.11606
9052.77,1.0,3.93263,3.93132,1.31466,5.28119
9203.77,1.0,3.9246,3.925,1.3566,5.44597
9354.77,1.0,3.91684,3.91718,1.39855,5.61042
9496.68,0.0,0.0,3.95982,1.41667,5.68136
9647.68,0.0,0.0,3.96306,1.41667,5.68136
9798.68,0.0,0.0,3.9655,1.41667,5.68136
9949.68,0.0,0.0,3.96806,1.41667,5.68136
10075.5,0.0,0.0,3.93839,1.45833,5.84036
10226.5,0.0,0.0,3.95791,1.45833,5.84036
10377.5,0.0,0.0,3.96025,1.45833,5.84036
10528.5,0.0,0.0,3.95963,1.45833,5.84036
10673.1,1.0,3.92152,3.92218,1.46475,5.86553
10824.1,1.0,3.90383,3.90385,1.50669,6.02957
10975.1,1.0,3.8935,3.89348,1.54864,6.19309
11126.1,1.0,3.88407,3.88379,1.59058,6.3562
11277.1,1.0,3.87479,3.87558,1.63252,6.51892
11428.1,1.0,3.86535,3.86544,1.67447,6.68125
11570.7,0.0,0.0,3.89382,1.70833,6.81202
11721.7,0.0,0.0,3.90712,1.70833,6.81202
11872.7,0.0,0.0,3.90833,1.70833,6.81202
12023.7,0.0,0.0,3.90964,1.70833,6.81202
12161.6,5.0,18.8101,3.76011,1.72448,6.87295
12298.1,0.0,0.0,3.89622,1.75,6.96858
12449.1,0.0,0.0,3.89816,1.75,6.96858
12600.1,0.0,0.0,3.90117,1.75,6.96858
12751.1,0.0,0.0,3.89957,1.75,6.96858
12894.7,1.0,3.84726,3.84683,1.78186,7.09142
13045.7,1.0,3.83444,3.8332,1.82381,7.25251
13196.7,1.0,3.824,3.82376,1.86575,7.41312
13347.7,1.0,3.81482,3.81475,1.9077,7.57332
13498.7,1.0,3.8065,3.80662,1.94964,7.73315
13649.7,1.0,3.79875,3.80101,1.99158,7.89264
13793.8,0.0,0.0,3.84254,2.0,7.92461
13944.8,0.0,0.0,3.84623,2.0,7.92461
14095.8,0.0,0.0,3.84887,2.0,7.92461
14246.8,0.0,0.0,3.85065,2.0,7.92461
14374.9,0.0,0.0,3.83348,2.04167,8.07882
14525.9,0.0,0.0,3.84015,2.04167,8.07882
14676.9,0.0,0.0,3.8418,2.04167,8.07882
14827.9,0.0,0.0,3.84218,2.04167,8.07882
14971.8,1.0,3.79764,3.79664,2.05883,8.14408
15122.8,1.0,3.78502,3.78682,2.10077,8.30308
15273.8,1.0,3.77571,3.77557,2.14271,8.46164
15424.8,1.0,3.76718,3.76621,2.18466,8.61983
15575.8,1.0,3.75896,3.75974,2.2266,8.77767
15726.8,1.0,3.75086,3.75051,2.26855,8.93516
15870.8,0.0,0.0,3.79046,2.29167,9.02183
16021.8,0.0,0.0,3.79557,2.29167,9.02183
16172.8,0.0,0.0,3.80182,2.29167,9.02183
16323.8,0.0,0.0,3.80038,2.29167,9.02183
16453.8,0.0,0.0,3.76324,2.33333,9.17393
16604.8,0.0,0.0,3.79153,2.33333,9.17393
16755.8,0.0,0.0,3.79368,2.33333,9.17393
16906.8,0.0,0.0,3.79405,2.33333,9.17393
17051.2,1.0,3.75924,3.7589,2.33643,9.18558
17202.2,1.0,3.73734,3.7372,2.37838,9.34269
17353.2,1.0,3.72615,3.72646,2.42032,9.4992
17504.2,1.0,3.71652,3.71645,2.46227,9.65529
17655.2,1.0,3.70767,3.70872,2.50421,9.81099
17806.2,1.0,3.69935,3.70033,2.54615,9.96633
17950.8,0.0,0.0,3.72608,2.58333,10.1037
18101.8,0.0,0.0,3.74319,2.58333,10.1037
18252.8,0.0,0.0,3.74479,2.58333,10.1037
18403.8,0.0,0.0,3.74373,2.58333,10.1037
18544.7,5.0,18.0815,3.617,2.58987,10.1274
18684.8,0.0,0.0,3.73378,2.625,10.2536
18835.8,0.0,0.0,3.73846,2.625,10.2536
18986.8,0.0,0.0,3.74034,2.625,10.2536
19137.8,0.0,0.0,3.7398,2.625,10.2536
19282.2,1.0,3.68792,3.68769,2.65615,10.3687
19433.2,1.0,3.67674,3.67572,2.6981,10.5232
19584.2,1.0,3.6681,3.66651,2.74004,10.6772
19735.2,1.0,3.66053,3.66212,2.78199,10.8309
19886.2,1.0,3.6536,3.65217,2.82393,10.9843
20037.2,1.0,3.64711,3.64662,2.86588,11.1374
20181.8,0.0,0.0,3.69082,2.875,11.1707
20332.8,0.0,0.0,3.69352,2.875,11.1707
20483.8,0.0,0.0,3.69662,2.875,11.1707
20634.8,0.0,0.0,3.69754,2.875,11.1707
20763.9,0.0,0.0,3.6818,2.91667,11.3186
20914.9,0.0,0.0,3.68944,2.91667,11.3186
21065.9,0.0,0.0,3.69109,2.91667,11.3186
21216.9,0.0,0.0,3.69054,2.91667,11.3186
21361.1,1.0,3.64651,3.64769,2.93365,11.3806
21512.1,1.0,3.6355,3.63487,2.9756,11.5333
21663.1,1.0,3.62794,3.62719,3.01754,11.6856
21814.1,1.0,3.62125,3.62037,3.05948,11.8377
21965.1,1.0,3.61495,3.61567,3.10143,11.9894
22116.1,1.0,3.60882,3.60746,3.14337,12.1409
22261.5,0.0,0.0,3.64524,3.16667,12.2249
22412.5,0.0,0.0,3.65061,3.16667,12.2249
22563.5,0.0,0.0,3.65337,3.16667,12.2249
22714.5,0.0,0.0,3.65291,3.16667,12.2249
22843.1,0.0,0.0,3.62275,3.20833,12.3711
22994.1,0.0,0.0,3.64563,3.20833,12.3711
23145.1,0.0,0.0,3.64691,3.20833,12.3711
23296.1,0.0,0.0,3.64702,3.20833,12.3711
23440.7,1.0,3.61403,3.61453,3.21132,12.3819
23591.7,1.0,3.5974,3.59705,3.25326,12.533
23742.7,1.0,3.58909,3.58843,3.29521,12.6838
23893.7,1.0,3.58148,3.58083,3.33715,12.8341
24044.7,1.0,3.57397,3.57476,3.3791,12.9842
24195.7,1.0,3.56636,3.56745,3.42104,13.1339
24340.1,0.0,0.0,3.5935,3.45833,13.2668
24491.1,0.0,0.0,3.60543,3.45833,13.2668
24642.1,0.0,0.0,3.60861,3.45833,13.2668
24793.1,0.0,0.0,3.60818,3.45833,13.2668
24933.8,5.0,17.3868,3.47818,3.46356,13.285
25072.2,0.0,0.0,3.59877,3.5,13.4109
25223.2,0.0,0.0,3.60124,3.5,13.4109
25374.2,0.0,0.0,3.60048,3.5,13.4109
25525.2,0.0,0.0,3.60157,3.5,13.4109
25670,1.0,3.55084,3.55074,3.53057,13.5196
25821,1.0,3.53973,3.54184,3.57251,13.6683
25972,1.0,3.52984,3.5295,3.61445,13.8166
26123,1.0,3.52029,3.52106,3.6564,13.9645
26274,1.0,3.51095,3.50954,3.69834,14.1119
26425,1.0,3.50181,3.50118,3.74029,14.259
26570,0.0,0.0,3.54544,3.75,14.293
26721,0.0,0.0,3.54954,3.75,14.293
26872,0.0,0.0,3.54911,3.75,14.293
27023,0.0,0.0,3.55172,3.75,14.293
27151.3,0.0,0.0,3.53286,3.79167,14.4345
27302.3,0.0,0.0,3.54151,3.79167,14.4345
27453.3,0.0,0.0,3.53928,3.79167,14.4345
27604.3,0.0,0.0,3.54145,3.79167,14.4345
27749,1.0,3.49504,3.49577,3.80806,14.4919
27900,1.0,3.48242,3.48227,3.85,14.6382
28051,1.0,3.47303,3.47455,3.89195,14.784
28202,1.0,3.46459,3.46526,3.93389,14.9295
28353,1.0,3.45677,3.45546,3.97583,15.0747
28504,1.0,3.44938,3.44993,4.01778,15.2195
28648.7,0.0,0.0,3.48965,4.04167,15.3019
28799.7,0.0,0.0,3.4935,4.04167,15.3019
28950.7,0.0,0.0,3.49315,4.04167,15.3019
29101.7,0.0,0.0,3.49563,4.04167,15.3019
29229.7,0.0,0.0,3.4621,4.08333,15.4411
29380.7,0.0,0.0,3.48861,4.08333,15.4411
29531.7,0.0,0.0,3.48793,4.08333,15.4411
29682.7,0.0,0.0,3.48748,4.08333,15.4411
29826.7,1.0,3.45285,3.45359,4.08518,15.4475
29977.7,1.0,3.43511,3.43519,4.12713,15.5918
30128.7,1.0,3.42633,3.42572,4.16907,15.7357
30279.7,1.0,3.41801,3.41612,4.21102,15.8793
30430.7,1.0,3.40931,3.40869,4.25296,16.0225
30581.7,1.0,3.39967,3.4001,4.2949,16.1653
30725.9,0.0,0.0,3.43077,4.33333,16.2957
30876.9,0.0,0.0,3.44298,4.33333,16.2957
31027.9,0.0,0.0,3.44435,4.33333,16.2957
31178.9,0.0,0.0,3.44548,4.33333,16.2957
31320.9,5.0,16.5447,3.30879,4.33454,16.2997
31456,0.0,0.0,3.43063,4.375,16.4321
31607,0.0,0.0,3.43455,4.375,16.4321
31758,0.0,0.0,3.43416,4.375,16.4321
31909,0.0,0.0,3.43642,4.375,16.4321
32052.9,1.0,3.37159,3.37189,4.40357,16.5287
32203.9,1.0,3.35033,3.35053,4.44552,16.6697
32354.9,1.0,3.32715,3.32847,4.48746,16.8098
32505.9,1.0,3.30105,3.30127,4.5294,16.9488
32656.9,1.0,3.27271,3.2717,4.57135,17.0866
32807.9,1.0,3.24335,3.24498,4.61329,17.2233
32951.7,0.0,0.0,3.29725,4.625,17.2612
33102.7,0.0,0.0,3.30004,4.625,17.2612
33253.7,0.0,0.0,3.30333,4.625,17.2612
33404.7,0.0,0.0,3.30388,4.625,17.2612
33527.2,0.0,0.0,3.25973,4.66667,17.3903
33678.2,0.0,0.0,3.2738,4.66667,17.3903
33829.2,0.0,0.0,3.277,4.66667,17.3903
33980.2,0.0,0.0,3.2753,4.66667,17.3903
34124.6,1.0,3.20841,3.20905,4.67907,17.4302
34275.6,1.0,3.17282,3.17357,4.72101,17.564
34426.6,1.0,3.1424,3.14138,4.76295,17.6964
34577.6,1.0,3.1107,3.11082,4.8049,17.8275
34728.6,1.0,3.07514,3.07532,4.84684,17.9573
34879.6,1.0,3.03298,3.03348,4.88879,18.0854
35022.5,0.0,0.0,3.07443,4.91667,18.1695
35173.5,0.0,0.0,3.0826,4.91667,18.1695
35324.5,0.0,0.0,3.08312,4.91667,18.1695
35475.5,0.0,0.0,3.08556,4.91667,18.1695
35610,0.0,0.0,2.89017,4.95833,18.2867
35746.9,0.0,0.0,3.02877,4.95833,18.2867
35897.9,0.0,0.0,3.03347,4.95833,18.2867
36048.9,0.0,0.0,3.03341,4.95833,18.2867
36199.9,0.0,0.0,3.037,4.95833,18.2867
36210.0,0.0,0.0,3.03628,4.95833,18.2867