File: output/use_case_2_10.0E.csv
Time [s],Current [A],Power [W],Voltage [V],Capacity [Ah],Energy [Wh]
0.0,0.0,0.0,4.09673,0.0,0.0
0.12,0.0,0.0,4.09697,0.0,0.0
0.48,0.0,0.0,4.0977,0.0,0.0
1.92,0.0,0.0,4.09572,0.0,0.0
3.92,0.0,0.0,4.09756,0.0,0.0
5.92,0.0,0.0,4.09621,0.0,0.0
7.92,0.0,0.0,4.096,0.0,0.0
9.92,0.0,0.0,4.09973,0.0,0.0
11.92,0.0,0.0,4.09701,0.0,0.0
13.92,0.0,0.0,4.09721,0.0,0.0
15.92,0.0,0.0,4.09709,0.0,0.0
17.92,0.0,0.0,4.09716,0.0,0.0
19.92,0.0,0.0,4.09594,0.0,0.0
21.92,0.0,0.0,4.09605,0.0,0.0
23.92,0.0,0.0,4.09646,0.0,0.0
25.92,0.0,0.0,4.09656,0.0,0.0
27.92,0.0,0.0,4.09572,0.0,0.0
29.92,0.0,0.0,4.09644,0.0,0.0
31.92,0.0,0.0,4.09703,0.0,0.0
33.92,0.0,0.0,4.09605,0.0,0.0
35.92,0.0,0.0,4.09756,0.0,0.0
37.92,0.0,0.0,4.09721,0.0,0.0
39.92,0.0,0.0,4.09704,0.0,0.0
41.92,0.0,0.0,4.09695,0.0,0.0
43.92,0.0,0.0,4.09642,0.0,0.0
45.92,0.0,0.0,4.09638,0.0,0.0
47.92,0.0,0.0,4.09549,0.0,0.0
49.92,0.0,0.0,4.09736,0.0,0.0
51.92,0.0,0.0,4.09782,0.0,0.0
53.92,0.0,0.0,4.09511,0.0,0.0
55.92,0.0,0.0,4.09668,0.0,0.0
57.92,0.0,0.0,4.09672,0.0,0.0
59.92,0.0,0.0,4.0966,0.0,0.0
60,48.6785,175.03,3.59518,9.60783e-17,3.45462e-16
60.0014,48.6788,175.03,3.59507,1.8877e-05,6.78746e-05
60.0056,48.6798,175.03,3.59492,7.55091e-05,0.000271498
60.0223,48.6834,175.03,3.59514,0.000302051,0.00108599
60.067,48.6927,175.03,3.59512,0.000906261,0.00325798
60.1117,48.7019,175.03,3.59365,0.00151059,0.00542997
60.201,48.7201,175.03,3.59383,0.00271963,0.00977394
60.335,48.7478,175.03,3.59041,0.00453417,0.0162899
60.5137,48.7865,175.03,3.58792,0.00695529,0.0249778
60.7818,48.8504,175.03,3.58486,0.0105914,0.0380098
61.1392,48.95,175.03,3.57528,0.0154482,0.0553856
61.4966,49.0675,175.03,3.56886,0.0203163,0.0727615
61.8539,49.2022,175.03,3.5562,0.0251974,0.0901374
62.2113,49.3531,175.03,3.54715,0.030093,0.107513
62.9261,49.7023,175.03,3.52175,0.0399431,0.142265
63.6051,50.1025,175.03,3.49359,0.0493737,0.175279
64.1488,50.4732,175.03,3.46754,0.056983,0.201714
64.8151,50.9638,175.03,3.43506,0.0663938,0.234105
65.6145,51.6045,175.03,3.39255,0.0778172,0.272974
66.374,52.2624,175.03,3.34968,0.0888076,0.3099
67.0935,52.9335,175.03,3.30683,0.0993527,0.344881
67.741,53.6078,175.028,3.26652,0.108964,0.376365
68.3886,54.3936,175.028,3.21903,0.118711,0.407848
69.0362,55.3726,175.029,3.16113,0.128625,0.439332
69.5836,56.4493,175.03,3.09999,0.137166,0.465947
69.9584,57.3818,175.03,3.0505,0.143116,0.484173
70,0.0,0.0,3.75354,0.14378,0.486194
70.0007,0.0,0.0,3.75587,0.14378,0.486194
70.0027,0.0,0.0,3.75494,0.14378,0.486194
70.0108,0.0,0.0,3.75687,0.14378,0.486194
70.027,0.0,0.0,3.75927,0.14378,0.486194
70.0487,0.0,0.0,3.75972,0.14378,0.486194
70.0811,0.0,0.0,3.76289,0.14378,0.486194
70.146,0.0,0.0,3.7679,0.14378,0.486194
70.2179,0.0,0.0,3.77446,0.14378,0.486194
70.2897,0.0,0.0,3.7777,0.14378,0.486194
70.4334,0.0,0.0,3.78544,0.14378,0.486194
70.577,0.0,0.0,3.7948,0.14378,0.486194
70.7207,0.0,0.0,3.80169,0.14378,0.486194
70.85,0.0,0.0,3.80745,0.14378,0.486194
70.9793,0.0,0.0,3.81308,0.14378,0.486194
71.1086,0.0,0.0,3.81829,0.14378,0.486194
71.2379,0.0,0.0,3.82054,0.14378,0.486194
71.3672,0.0,0.0,3.82566,0.14378,0.486194
71.4965,0.0,0.0,3.83102,0.14378,0.486194
71.7551,0.0,0.0,3.84122,0.14378,0.486194
72.0137,0.0,0.0,3.84739,0.14378,0.486194
72.2723,0.0,0.0,3.8511,0.14378,0.486194
72.5309,0.0,0.0,3.85991,0.14378,0.486194
72.7895,0.0,0.0,3.86402,0.14378,0.486194
73.0481,0.0,0.0,3.86989,0.14378,0.486194
73.3067,0.0,0.0,3.87472,0.14378,0.486194
73.6946,0.0,0.0,3.88172,0.14378,0.486194
74.2118,0.0,0.0,3.89209,0.14378,0.486194
74.729,0.0,0.0,3.89877,0.14378,0.486194
75.2461,0.0,0.0,3.90529,0.14378,0.486194
75.7633,0.0,0.0,3.91102,0.14378,0.486194
76.2805,0.0,0.0,3.91666,0.14378,0.486194
76.7977,0.0,0.0,3.9224,0.14378,0.486194
77.3149,0.0,0.0,3.92671,0.14378,0.486194
77.8321,0.0,0.0,3.93269,0.14378,0.486194
78.3493,0.0,0.0,3.93798,0.14378,0.486194
78.8665,0.0,0.0,3.94303,0.14378,0.486194
79.6423,0.0,0.0,3.94828,0.14378,0.486194
80.6767,0.0,0.0,3.95611,0.14378,0.486194
81.7111,0.0,0.0,3.96349,0.14378,0.486194
83.2282,0.0,0.0,3.97098,0.14378,0.486194
85.0282,0.0,0.0,3.98221,0.14378,0.486194
86.8282,0.0,0.0,3.98863,0.14378,0.486194
88.6282,0.0,0.0,3.99733,0.14378,0.486194
90.4282,0.0,0.0,4.00125,0.14378,0.486194
92.3282,0.0,0.0,4.0079,0.14378,0.486194
94.3282,0.0,0.0,4.01375,0.14378,0.486194
96.3282,0.0,0.0,4.01968,0.14378,0.486194
98.3282,0.0,0.0,4.02337,0.14378,0.486194
100.328,0.0,0.0,4.02884,0.14378,0.486194
102.328,0.0,0.0,4.03305,0.14378,0.486194
104.328,0.0,0.0,4.03431,0.14378,0.486194
106.328,0.0,0.0,4.03813,0.14378,0.486194
108.328,0.0,0.0,4.04192,0.14378,0.486194
110.328,0.0,0.0,4.04222,0.14378,0.486194
112.328,0.0,0.0,4.04636,0.14378,0.486194
114.328,0.0,0.0,4.04685,0.14378,0.486194
116.328,0.0,0.0,4.0478,0.14378,0.486194
118.328,0.0,0.0,4.04979,0.14378,0.486194
120.328,0.0,0.0,4.05285,0.14378,0.486194
122.328,0.0,0.0,4.05461,0.14378,0.486194
124.328,0.0,0.0,4.05532,0.14378,0.486194
126.328,0.0,0.0,4.05805,0.14378,0.486194
128.328,0.0,0.0,4.05838,0.14378,0.486194
130.328,0.0,0.0,4.05864,0.14378,0.486194
132.328,0.0,0.0,4.06136,0.14378,0.486194
134.328,0.0,0.0,4.06415,0.14378,0.486194
136.328,0.0,0.0,4.06369,0.14378,0.486194
138.328,0.0,0.0,4.06444,0.14378,0.486194
140.328,0.0,0.0,4.06646,0.14378,0.486194
142.328,0.0,0.0,4.06784,0.14378,0.486194
144.328,0.0,0.0,4.06496,0.14378,0.486194
146.328,0.0,0.0,4.0677,0.14378,0.486194
148.328,0.0,0.0,4.06961,0.14378,0.486194
150.328,0.0,0.0,4.07004,0.14378,0.486194
152.328,0.0,0.0,4.07142,0.14378,0.486194
154.328,0.0,0.0,4.07133,0.14378,0.486194
156.328,0.0,0.0,4.07041,0.14378,0.486194
158.328,0.0,0.0,4.07064,0.14378,0.486194
160.328,0.0,0.0,4.07208,0.14378,0.486194
162.328,0.0,0.0,4.07826,0.14378,0.486194
164.328,0.0,0.0,4.07436,0.14378,0.486194
166.328,0.0,0.0,4.07509,0.14378,0.486194
168.328,0.0,0.0,4.07538,0.14378,0.486194
170.328,0.0,0.0,4.07558,0.14378,0.486194
172.328,0.0,0.0,4.07631,0.14378,0.486194
174.328,0.0,0.0,4.07618,0.14378,0.486194
176.328,0.0,0.0,4.07802,0.14378,0.486194
178.328,0.0,0.0,4.07782,0.14378,0.486194
180.328,0.0,0.0,4.07774,0.14378,0.486194
182.328,0.0,0.0,4.07868,0.14378,0.486194
184.328,0.0,0.0,4.07729,0.14378,0.486194
186.328,0.0,0.0,4.07843,0.14378,0.486194
188.328,0.0,0.0,4.07842,0.14378,0.486194
190.328,0.0,0.0,4.08115,0.14378,0.486194
192.328,0.0,0.0,4.08009,0.14378,0.486194
194.328,0.0,0.0,4.0777,0.14378,0.486194
196.328,0.0,0.0,4.08079,0.14378,0.486194
198.328,0.0,0.0,4.08013,0.14378,0.486194
200.328,0.0,0.0,4.07826,0.14378,0.486194
202.328,0.0,0.0,4.08154,0.14378,0.486194
204.328,0.0,0.0,4.07911,0.14378,0.486194
206.328,0.0,0.0,4.08222,0.14378,0.486194
208.328,0.0,0.0,4.08109,0.14378,0.486194
210.328,0.0,0.0,4.0821,0.14378,0.486194
212.328,0.0,0.0,4.08143,0.14378,0.486194
214.328,0.0,0.0,4.08047,0.14378,0.486194
216.328,0.0,0.0,4.08124,0.14378,0.486194
218.328,0.0,0.0,4.08274,0.14378,0.486194
220.328,0.0,0.0,4.07915,0.14378,0.486194
222.328,0.0,0.0,4.08344,0.14378,0.486194
224.328,0.0,0.0,4.08215,0.14378,0.486194
226.328,0.0,0.0,4.08312,0.14378,0.486194
228.328,0.0,0.0,4.08291,0.14378,0.486194
230.328,0.0,0.0,4.08326,0.14378,0.486194
232.328,0.0,0.0,4.08223,0.14378,0.486194
234.328,0.0,0.0,4.08343,0.14378,0.486194
236.328,0.0,0.0,4.08397,0.14378,0.486194
238.328,0.0,0.0,4.08464,0.14378,0.486194
240.328,0.0,0.0,4.08355,0.14378,0.486194
242.328,0.0,0.0,4.08412,0.14378,0.486194
244.328,0.0,0.0,4.0854,0.14378,0.486194
246.328,0.0,0.0,4.0846,0.14378,0.486194
248.328,0.0,0.0,4.08404,0.14378,0.486194
250.328,0.0,0.0,4.08324,0.14378,0.486194
252.328,0.0,0.0,4.08348,0.14378,0.486194
254.328,0.0,0.0,4.08497,0.14378,0.486194
256.328,0.0,0.0,4.08431,0.14378,0.486194
258.328,0.0,0.0,4.08372,0.14378,0.486194
260.328,0.0,0.0,4.08276,0.14378,0.486194
262.328,0.0,0.0,4.08479,0.14378,0.486194
264.328,0.0,0.0,4.08314,0.14378,0.486194
266.328,0.0,0.0,4.08618,0.14378,0.486194
268.328,0.0,0.0,4.0853,0.14378,0.486194
270.328,0.0,0.0,4.08478,0.14378,0.486194
272.328,0.0,0.0,4.08398,0.14378,0.486194
274.328,0.0,0.0,4.08412,0.14378,0.486194
276.328,0.0,0.0,4.08453,0.14378,0.486194
278.328,0.0,0.0,4.08607,0.14378,0.486194
280.328,0.0,0.0,4.08534,0.14378,0.486194
282.328,0.0,0.0,4.08575,0.14378,0.486194
284.328,0.0,0.0,4.08422,0.14378,0.486194
286.328,0.0,0.0,4.08433,0.14378,0.486194
288.328,0.0,0.0,4.08727,0.14378,0.486194
290.328,0.0,0.0,4.08426,0.14378,0.486194
292.328,0.0,0.0,4.08665,0.14378,0.486194
294.328,0.0,0.0,4.08509,0.14378,0.486194
296.328,0.0,0.0,4.08655,0.14378,0.486194
298.328,0.0,0.0,4.08699,0.14378,0.486194
300.328,0.0,0.0,4.0865,0.14378,0.486194
302.328,0.0,0.0,4.08636,0.14378,0.486194
304.328,0.0,0.0,4.08597,0.14378,0.486194
306.328,0.0,0.0,4.0855,0.14378,0.486194
308.328,0.0,0.0,4.08703,0.14378,0.486194
310.328,0.0,0.0,4.08517,0.14378,0.486194
312.328,0.0,0.0,4.08598,0.14378,0.486194
314.328,0.0,0.0,4.08615,0.14378,0.486194
316.328,0.0,0.0,4.08574,0.14378,0.486194
318.328,0.0,0.0,4.08495,0.14378,0.486194
320.328,0.0,0.0,4.08533,0.14378,0.486194
322.328,0.0,0.0,4.08689,0.14378,0.486194
324.328,0.0,0.0,4.08588,0.14378,0.486194
326.328,0.0,0.0,4.08666,0.14378,0.486194
328.328,0.0,0.0,4.08495,0.14378,0.486194
330.328,0.0,0.0,4.08449,0.14378,0.486194
332.328,0.0,0.0,4.08647,0.14378,0.486194
334.328,0.0,0.0,4.08633,0.14378,0.486194
336.328,0.0,0.0,4.08706,0.14378,0.486194
338.328,0.0,0.0,4.08664,0.14378,0.486194
340.328,0.0,0.0,4.08556,0.14378,0.486194
342.328,0.0,0.0,4.08793,0.14378,0.486194
344.328,0.0,0.0,4.08596,0.14378,0.486194
346.328,0.0,0.0,4.08738,0.14378,0.486194
348.328,0.0,0.0,4.08676,0.14378,0.486194
350.328,0.0,0.0,4.08598,0.14378,0.486194
352.328,0.0,0.0,4.08488,0.14378,0.486194
354.328,0.0,0.0,4.08623,0.14378,0.486194
356.328,0.0,0.0,4.08676,0.14378,0.486194
358.328,0.0,0.0,4.08781,0.14378,0.486194
360.328,0.0,0.0,4.08669,0.14378,0.486194
362.328,0.0,0.0,4.08543,0.14378,0.486194
364.328,0.0,0.0,4.08586,0.14378,0.486194
366.328,0.0,0.0,4.0871,0.14378,0.486194
368.328,0.0,0.0,4.08701,0.14378,0.486194
370.0,0.0,0.0,4.08588,0.14378,0.486194