File: output/use_case_2_0.5E.csv
Time [s],Current [A],Power [W],Voltage [V],Capacity [Ah],Energy [Wh]
0.0,0.0,0.0,4.09521,0.0,0.0
0.12,0.0,0.0,4.09497,0.0,0.0
0.48,0.0,0.0,4.09629,0.0,0.0
1.92,0.0,0.0,4.09627,0.0,0.0
3.92,0.0,0.0,4.09588,0.0,0.0
5.92,0.0,0.0,4.09728,0.0,0.0
7.92,0.0,0.0,4.09553,0.0,0.0
9.92,0.0,0.0,4.09687,0.0,0.0
11.92,0.0,0.0,4.09613,0.0,0.0
13.92,0.0,0.0,4.09532,0.0,0.0
15.92,0.0,0.0,4.09669,0.0,0.0
17.92,0.0,0.0,4.09688,0.0,0.0
19.92,0.0,0.0,4.09764,0.0,0.0
21.92,0.0,0.0,4.09666,0.0,0.0
23.92,0.0,0.0,4.09746,0.0,0.0
25.92,0.0,0.0,4.09761,0.0,0.0
27.92,0.0,0.0,4.09686,0.0,0.0
29.92,0.0,0.0,4.09502,0.0,0.0
31.92,0.0,0.0,4.09706,0.0,0.0
33.92,0.0,0.0,4.09619,0.0,0.0
35.92,0.0,0.0,4.09743,0.0,0.0
37.92,0.0,0.0,4.09582,0.0,0.0
39.92,0.0,0.0,4.09675,0.0,0.0
41.92,0.0,0.0,4.09663,0.0,0.0
43.92,0.0,0.0,4.09671,0.0,0.0
45.92,0.0,0.0,4.09527,0.0,0.0
47.92,0.0,0.0,4.0978,0.0,0.0
49.92,0.0,0.0,4.09723,0.0,0.0
51.92,0.0,0.0,4.09791,0.0,0.0
53.92,0.0,0.0,4.09585,0.0,0.0
55.92,0.0,0.0,4.09508,0.0,0.0
57.92,0.0,0.0,4.09515,0.0,0.0
59.92,0.0,0.0,4.09764,0.0,0.0
60,2.17351,8.75,4.02473,4.28992e-18,1.72701e-17
60.02,2.17352,8.75,4.02479,1.20751e-05,4.86111e-05
60.08,2.17354,8.75,4.02418,4.83006e-05,0.000194444
60.32,2.17361,8.75,4.02636,0.000193207,0.000777778
60.96,2.1738,8.75,4.02565,0.000579651,0.00233333
61.92,2.17407,8.75,4.02418,0.00115939,0.00466667
63.56,2.1745,8.75,4.02386,0.00214995,0.00865278
65.56,2.17499,8.75,4.02294,0.00335821,0.0135139
67.56,2.17543,8.75,4.02188,0.00456672,0.018375
69.56,2.17585,8.75,4.02147,0.00577547,0.0232361
70,0.0,0.0,4.09126,0.00604142,0.0243056
70.0664,0.0,0.0,4.09006,0.00604142,0.0243056
70.2438,0.0,0.0,4.09121,0.00604142,0.0243056
70.5988,0.0,0.0,4.08925,0.00604142,0.0243056
71.0721,0.0,0.0,4.09319,0.00604142,0.0243056
72.0187,0.0,0.0,4.09065,0.00604142,0.0243056
73.8171,0.0,0.0,4.09188,0.00604142,0.0243056
75.521,0.0,0.0,4.09109,0.00604142,0.0243056
77.3729,0.0,0.0,4.09396,0.00604142,0.0243056
79.3729,0.0,0.0,4.09264,0.00604142,0.0243056
81.3729,0.0,0.0,4.09372,0.00604142,0.0243056
83.3729,0.0,0.0,4.09219,0.00604142,0.0243056
85.3729,0.0,0.0,4.09349,0.00604142,0.0243056
87.3729,0.0,0.0,4.09394,0.00604142,0.0243056
89.3729,0.0,0.0,4.09428,0.00604142,0.0243056
91.3729,0.0,0.0,4.09304,0.00604142,0.0243056
93.3729,0.0,0.0,4.09542,0.00604142,0.0243056
95.3729,0.0,0.0,4.09469,0.00604142,0.0243056
97.3729,0.0,0.0,4.09429,0.00604142,0.0243056
99.3729,0.0,0.0,4.09548,0.00604142,0.0243056
101.373,0.0,0.0,4.09375,0.00604142,0.0243056
103.373,0.0,0.0,4.09627,0.00604142,0.0243056
105.373,0.0,0.0,4.09599,0.00604142,0.0243056
107.373,0.0,0.0,4.0934,0.00604142,0.0243056
109.373,0.0,0.0,4.09428,0.00604142,0.0243056
111.373,0.0,0.0,4.09388,0.00604142,0.0243056
113.373,0.0,0.0,4.09529,0.00604142,0.0243056
115.373,0.0,0.0,4.09509,0.00604142,0.0243056
117.373,0.0,0.0,4.09405,0.00604142,0.0243056
119.373,0.0,0.0,4.0963,0.00604142,0.0243056
121.373,0.0,0.0,4.09472,0.00604142,0.0243056
123.373,0.0,0.0,4.095,0.00604142,0.0243056
125.373,0.0,0.0,4.09535,0.00604142,0.0243056
127.373,0.0,0.0,4.09603,0.00604142,0.0243056
129.373,0.0,0.0,4.09801,0.00604142,0.0243056
131.373,0.0,0.0,4.09489,0.00604142,0.0243056
133.373,0.0,0.0,4.0969,0.00604142,0.0243056
135.373,0.0,0.0,4.09759,0.00604142,0.0243056
137.373,0.0,0.0,4.09506,0.00604142,0.0243056
139.373,0.0,0.0,4.09634,0.00604142,0.0243056
141.373,0.0,0.0,4.09584,0.00604142,0.0243056
143.373,0.0,0.0,4.09655,0.00604142,0.0243056
145.373,0.0,0.0,4.09753,0.00604142,0.0243056
147.373,0.0,0.0,4.0953,0.00604142,0.0243056
149.373,0.0,0.0,4.09531,0.00604142,0.0243056
151.373,0.0,0.0,4.09597,0.00604142,0.0243056
153.373,0.0,0.0,4.0962,0.00604142,0.0243056
155.373,0.0,0.0,4.09656,0.00604142,0.0243056
157.373,0.0,0.0,4.09518,0.00604142,0.0243056
159.373,0.0,0.0,4.09689,0.00604142,0.0243056
161.373,0.0,0.0,4.09714,0.00604142,0.0243056
163.373,0.0,0.0,4.09572,0.00604142,0.0243056
165.373,0.0,0.0,4.09459,0.00604142,0.0243056
167.373,0.0,0.0,4.0985,0.00604142,0.0243056
169.373,0.0,0.0,4.09732,0.00604142,0.0243056
171.373,0.0,0.0,4.09551,0.00604142,0.0243056
173.373,0.0,0.0,4.09638,0.00604142,0.0243056
175.373,0.0,0.0,4.09576,0.00604142,0.0243056
177.373,0.0,0.0,4.09417,0.00604142,0.0243056
179.373,0.0,0.0,4.09525,0.00604142,0.0243056
181.373,0.0,0.0,4.09601,0.00604142,0.0243056
183.373,0.0,0.0,4.09567,0.00604142,0.0243056
185.373,0.0,0.0,4.09526,0.00604142,0.0243056
187.373,0.0,0.0,4.09494,0.00604142,0.0243056
189.373,0.0,0.0,4.0952,0.00604142,0.0243056
191.373,0.0,0.0,4.09709,0.00604142,0.0243056
193.373,0.0,0.0,4.09638,0.00604142,0.0243056
195.373,0.0,0.0,4.09602,0.00604142,0.0243056
197.373,0.0,0.0,4.09813,0.00604142,0.0243056
199.373,0.0,0.0,4.097,0.00604142,0.0243056
201.373,0.0,0.0,4.0948,0.00604142,0.0243056
203.373,0.0,0.0,4.09649,0.00604142,0.0243056
205.373,0.0,0.0,4.09782,0.00604142,0.0243056
207.373,0.0,0.0,4.09652,0.00604142,0.0243056
209.373,0.0,0.0,4.09591,0.00604142,0.0243056
211.373,0.0,0.0,4.09704,0.00604142,0.0243056
213.373,0.0,0.0,4.09618,0.00604142,0.0243056
215.373,0.0,0.0,4.09637,0.00604142,0.0243056
217.373,0.0,0.0,4.09674,0.00604142,0.0243056
219.373,0.0,0.0,4.09596,0.00604142,0.0243056
221.373,0.0,0.0,4.09596,0.00604142,0.0243056
223.373,0.0,0.0,4.09779,0.00604142,0.0243056
225.373,0.0,0.0,4.09579,0.00604142,0.0243056
227.373,0.0,0.0,4.09575,0.00604142,0.0243056
229.373,0.0,0.0,4.09678,0.00604142,0.0243056
231.373,0.0,0.0,4.09655,0.00604142,0.0243056
233.373,0.0,0.0,4.09656,0.00604142,0.0243056
235.373,0.0,0.0,4.09644,0.00604142,0.0243056
237.373,0.0,0.0,4.09482,0.00604142,0.0243056
239.373,0.0,0.0,4.09649,0.00604142,0.0243056
241.373,0.0,0.0,4.09789,0.00604142,0.0243056
243.373,0.0,0.0,4.09624,0.00604142,0.0243056
245.373,0.0,0.0,4.09601,0.00604142,0.0243056
247.373,0.0,0.0,4.09732,0.00604142,0.0243056
249.373,0.0,0.0,4.0969,0.00604142,0.0243056
251.373,0.0,0.0,4.09669,0.00604142,0.0243056
253.373,0.0,0.0,4.09687,0.00604142,0.0243056
255.373,0.0,0.0,4.09647,0.00604142,0.0243056
257.373,0.0,0.0,4.09711,0.00604142,0.0243056
259.373,0.0,0.0,4.09525,0.00604142,0.0243056
261.373,0.0,0.0,4.0951,0.00604142,0.0243056
263.373,0.0,0.0,4.09587,0.00604142,0.0243056
265.373,0.0,0.0,4.0984,0.00604142,0.0243056
267.373,0.0,0.0,4.09362,0.00604142,0.0243056
269.373,0.0,0.0,4.09502,0.00604142,0.0243056
271.373,0.0,0.0,4.09717,0.00604142,0.0243056
273.373,0.0,0.0,4.09663,0.00604142,0.0243056
275.373,0.0,0.0,4.09608,0.00604142,0.0243056
277.373,0.0,0.0,4.09608,0.00604142,0.0243056
279.373,0.0,0.0,4.0969,0.00604142,0.0243056
281.373,0.0,0.0,4.09672,0.00604142,0.0243056
283.373,0.0,0.0,4.09603,0.00604142,0.0243056
285.373,0.0,0.0,4.0955,0.00604142,0.0243056
287.373,0.0,0.0,4.09583,0.00604142,0.0243056
289.373,0.0,0.0,4.0959,0.00604142,0.0243056
291.373,0.0,0.0,4.09643,0.00604142,0.0243056
293.373,0.0,0.0,4.09501,0.00604142,0.0243056
295.373,0.0,0.0,4.0959,0.00604142,0.0243056
297.373,0.0,0.0,4.09914,0.00604142,0.0243056
299.373,0.0,0.0,4.0971,0.00604142,0.0243056
301.373,0.0,0.0,4.0964,0.00604142,0.0243056
303.373,0.0,0.0,4.09537,0.00604142,0.0243056
305.373,0.0,0.0,4.0972,0.00604142,0.0243056
307.373,0.0,0.0,4.09551,0.00604142,0.0243056
309.373,0.0,0.0,4.09645,0.00604142,0.0243056
311.373,0.0,0.0,4.09538,0.00604142,0.0243056
313.373,0.0,0.0,4.09647,0.00604142,0.0243056
315.373,0.0,0.0,4.09661,0.00604142,0.0243056
317.373,0.0,0.0,4.09626,0.00604142,0.0243056
319.373,0.0,0.0,4.09648,0.00604142,0.0243056
321.373,0.0,0.0,4.09689,0.00604142,0.0243056
323.373,0.0,0.0,4.09822,0.00604142,0.0243056
325.373,0.0,0.0,4.09697,0.00604142,0.0243056
327.373,0.0,0.0,4.09678,0.00604142,0.0243056
329.373,0.0,0.0,4.09465,0.00604142,0.0243056
331.373,0.0,0.0,4.09395,0.00604142,0.0243056
333.373,0.0,0.0,4.09686,0.00604142,0.0243056
335.373,0.0,0.0,4.09707,0.00604142,0.0243056
337.373,0.0,0.0,4.09652,0.00604142,0.0243056
339.373,0.0,0.0,4.09495,0.00604142,0.0243056
341.373,0.0,0.0,4.09435,0.00604142,0.0243056
343.373,0.0,0.0,4.09721,0.00604142,0.0243056
345.373,0.0,0.0,4.09643,0.00604142,0.0243056
347.373,0.0,0.0,4.0964,0.00604142,0.0243056
349.373,0.0,0.0,4.09489,0.00604142,0.0243056
351.373,0.0,0.0,4.09692,0.00604142,0.0243056
353.373,0.0,0.0,4.09821,0.00604142,0.0243056
355.373,0.0,0.0,4.09713,0.00604142,0.0243056
357.373,0.0,0.0,4.09595,0.00604142,0.0243056
359.373,0.0,0.0,4.09698,0.00604142,0.0243056
361.373,0.0,0.0,4.09669,0.00604142,0.0243056
363.373,0.0,0.0,4.09667,0.00604142,0.0243056
365.373,0.0,0.0,4.09655,0.00604142,0.0243056
367.373,0.0,0.0,4.09702,0.00604142,0.0243056
369.373,0.0,0.0,4.09559,0.00604142,0.0243056
370.0,0.0,0.0,4.09601,0.00604142,0.0243056