File: output/use_case_1_2.0E.csv
Time [s],Current [A],Power [W],Voltage [V],Capacity [Ah],Energy [Wh]
0.0,8.75733,35.01,3.9997,0.0,0.0
0.192114,8.76156,35.01,3.99569,0.000467478,0.00186831
2.11326,8.80122,35.01,3.9783,0.00515587,0.0205514
7.16247,8.88302,35.01,3.94119,0.0175698,0.0696551
14.1625,8.95641,35.01,3.91071,0.0349297,0.13773
21.1625,9.00118,35.01,3.88913,0.0523981,0.205805
28.1625,9.02914,35.01,3.87534,0.0699335,0.27388
35.1625,9.04795,35.01,3.86875,0.087512,0.341955
42.1625,9.06265,35.01,3.86491,0.105122,0.41003
49.1625,9.07579,35.01,3.85697,0.122758,0.478105
56.1625,9.08823,35.01,3.85356,0.14042,0.54618
63.1625,9.10042,35.01,3.84604,0.158105,0.614255
70.1625,9.11265,35.01,3.84104,0.175814,0.68233
77.1625,9.12508,35.01,3.83583,0.193546,0.750405
84.1625,9.13793,35.01,3.83063,0.211304,0.81848
91.1625,9.15126,35.01,3.82677,0.229087,0.886555
98.1625,9.16509,35.01,3.82041,0.246896,0.95463
105.162,9.17935,35.01,3.81499,0.264733,1.02271
112.162,9.19398,35.01,3.80697,0.282598,1.09078
119.162,9.20886,35.01,3.79999,0.300492,1.15886
126.162,9.22393,35.01,3.79559,0.318415,1.22693
133.162,9.23904,35.01,3.78889,0.336367,1.29501
140.162,9.25412,35.01,3.78483,0.354348,1.36308
147.162,9.26907,35.01,3.77785,0.372359,1.43116
154.162,9.28386,35.01,3.77167,0.390399,1.49923
161.162,9.29841,35.01,3.76552,0.408467,1.56731
168.162,9.3127,35.01,3.75822,0.426563,1.63538
175.162,9.32671,35.01,3.75399,0.444687,1.70346
182.162,9.3404,35.01,3.74767,0.462837,1.77153
189.162,9.35379,35.01,3.74247,0.481014,1.83961
196.162,9.36685,35.01,3.7392,0.499216,1.90768
203.162,9.37961,35.01,3.73451,0.517444,1.97576
210.162,9.39206,35.01,3.72547,0.535696,2.04383
217.162,9.40424,35.01,3.72169,0.553972,2.11191
224.162,9.41615,35.01,3.71814,0.572271,2.17998
231.162,9.42783,35.01,3.71393,0.590593,2.24806
238.162,9.4393,35.01,3.70958,0.608938,2.31613
245.162,9.45061,35.01,3.7035,0.627305,2.38421
252.162,9.4618,35.01,3.70087,0.645694,2.45228
259.162,9.4729,35.01,3.69575,0.664104,2.52036
266.162,9.48395,35.01,3.691,0.682536,2.58843
273.162,9.49498,35.01,3.68713,0.700989,2.65651
280.162,9.50603,35.01,3.68177,0.719464,2.72458
287.162,9.51711,35.01,3.67715,0.73796,2.79266
294.162,9.52826,35.01,3.67701,0.756478,2.86073
301.162,9.53947,35.01,3.67088,0.775017,2.92881
308.162,9.55078,35.01,3.66563,0.793579,2.99688
315.162,9.56219,35.01,3.661,0.812162,3.06496
322.162,9.57371,35.01,3.65785,0.830768,3.13303
329.162,9.58537,35.01,3.65186,0.849397,3.20111
336.162,9.59716,35.01,3.64688,0.868048,3.26918
343.162,9.60909,35.01,3.64449,0.886723,3.33726
350.162,9.62118,35.01,3.63795,0.90542,3.40533
357.162,9.63343,35.01,3.6355,0.924142,3.47341
364.162,9.64585,35.01,3.62954,0.942887,3.54148
371.162,9.65843,35.01,3.625,0.961657,3.60956
378.162,9.67119,35.01,3.61998,0.980451,3.67763
385.162,9.68412,35.01,3.61357,0.999271,3.74571
392.162,9.69724,35.01,3.61105,1.01812,3.81378
399.162,9.71053,35.01,3.60628,1.03699,3.88186
406.162,9.72401,35.01,3.60179,1.05588,3.94993
413.162,9.73766,35.01,3.59447,1.07481,4.01801
420.162,9.7515,35.01,3.58993,1.09376,4.08608
427.162,9.7655,35.01,3.58524,1.11273,4.15416
434.162,9.77968,35.01,3.58003,1.13174,4.22223
441.162,9.79402,35.01,3.57473,1.15077,4.29031
448.162,9.80852,35.01,3.56861,1.16983,4.35838
455.162,9.82317,35.01,3.56493,1.18892,4.42646
462.162,9.83796,35.01,3.55775,1.20803,4.49453
469.162,9.85288,35.01,3.55398,1.22718,4.56261
476.162,9.86792,35.01,3.54819,1.24635,4.63068
483.162,9.88306,35.01,3.54242,1.26556,4.69876
490.162,9.89828,35.01,3.53631,1.28479,4.76683
497.162,9.91357,35.01,3.5331,1.30406,4.83491
504.162,9.9289,35.01,3.52541,1.32335,4.90298
511.162,9.94425,35.01,3.52199,1.34267,4.97106
518.162,9.9596,35.01,3.51649,1.36203,5.03913
525.162,9.97493,35.01,3.50988,1.38141,5.10721
532.162,9.99022,35.01,3.50315,1.40082,5.17528
539.162,10.0054,35.01,3.49738,1.42026,5.24336
546.162,10.0205,35.01,3.49449,1.43974,5.31143
553.162,10.0355,35.01,3.48884,1.45924,5.37951
560.162,10.0504,35.01,3.48484,1.47877,5.44758
567.162,10.0651,35.01,3.4786,1.49833,5.51566
574.162,10.0796,35.01,3.47391,1.51791,5.58373
581.162,10.0939,35.01,3.4691,1.53753,5.65181
588.162,10.108,35.01,3.46204,1.55717,5.71988
595.162,10.1218,35.01,3.46006,1.57684,5.78796
602.162,10.1355,35.01,3.45272,1.59654,5.85603
609.162,10.1489,35.01,3.4488,1.61626,5.92411
616.162,10.1621,35.01,3.44549,1.63601,5.99218
623.162,10.1751,35.01,3.44148,1.65578,6.06026
630.162,10.1878,35.01,3.43654,1.67558,6.12833
637.162,10.2003,35.01,3.43196,1.69541,6.19641
644.162,10.2126,35.01,3.42816,1.71525,6.26448
651.162,10.2248,35.01,3.42549,1.73512,6.33256
658.162,10.2367,35.01,3.41958,1.75502,6.40063
665.162,10.2485,35.01,3.41649,1.77494,6.46871
672.162,10.2601,35.01,3.41219,1.79488,6.53678
679.162,10.2716,35.01,3.40907,1.81484,6.60486
686.162,10.2829,35.01,3.40511,1.83483,6.67293
693.162,10.2942,35.01,3.40168,1.85483,6.74101
700.162,10.3053,35.01,3.39862,1.87486,6.80908
707.162,10.3164,35.01,3.39382,1.89491,6.87716
714.162,10.3274,35.01,3.38819,1.91498,6.94523
721.162,10.3383,35.01,3.3867,1.93508,7.01331
728.162,10.3493,35.01,3.38266,1.95519,7.08138
735.162,10.3601,35.01,3.37918,1.97533,7.14946
742.162,10.371,35.01,3.37543,1.99548,7.21753
749.162,10.3818,35.01,3.37176,2.01566,7.28561
756.162,10.3926,35.01,3.3687,2.03586,7.35368
763.162,10.4035,35.01,3.36458,2.05608,7.42176
770.162,10.4143,35.01,3.35986,2.07632,7.48983
777.162,10.4251,35.01,3.35856,2.09658,7.55791
784.162,10.4359,35.01,3.35375,2.11687,7.62598
791.162,10.4468,35.01,3.35135,2.13717,7.69406
798.162,10.4577,35.01,3.34791,2.1575,7.76213
805.162,10.4687,35.01,3.34354,2.17784,7.83021
812.162,10.4797,35.01,3.33987,2.19821,7.89828
819.162,10.4908,35.01,3.3375,2.2186,7.96636
826.162,10.502,35.01,3.33325,2.23901,8.03443
833.162,10.5133,35.01,3.32663,2.25944,8.10251
840.162,10.5248,35.01,3.32768,2.2799,8.17058
847.162,10.5363,35.01,3.32396,2.30038,8.23866
854.162,10.548,35.01,3.32018,2.32088,8.30673
861.162,10.5598,35.01,3.316,2.3414,8.37481
868.162,10.5718,35.01,3.30934,2.36195,8.44288
875.162,10.584,35.01,3.30848,2.38252,8.51096
882.162,10.5963,35.01,3.30313,2.40311,8.57903
889.162,10.6088,35.01,3.30037,2.42373,8.64711
896.162,10.6215,35.01,3.2959,2.44437,8.71518
903.162,10.6343,35.01,3.29416,2.46504,8.78326
910.162,10.6474,35.01,3.28631,2.48573,8.85133
917.162,10.6606,35.01,3.28432,2.50645,8.91941
924.162,10.674,35.01,3.27991,2.52719,8.98748
931.162,10.6876,35.01,3.27572,2.54796,9.05556
938.162,10.7015,35.01,3.27114,2.56876,9.12363
945.162,10.7155,35.01,3.26692,2.58958,9.19171
952.162,10.7297,35.01,3.26432,2.61043,9.25978
959.162,10.7441,35.01,3.25852,2.63131,9.32786
966.162,10.7587,35.01,3.25497,2.65222,9.39593
973.162,10.7735,35.01,3.2503,2.67316,9.46401
980.162,10.7885,35.01,3.24537,2.69412,9.53208
987.162,10.8036,35.01,3.24052,2.71512,9.60016
994.162,10.819,35.01,3.23696,2.73614,9.66823
1001.16,10.8346,35.01,3.23173,2.75719,9.73631
1008.16,10.8503,35.01,3.2272,2.77828,9.80438
1015.16,10.8663,35.01,3.22234,2.7994,9.87246
1022.16,10.8824,35.01,3.21882,2.82054,9.94053
1029.16,10.8987,35.01,3.21348,2.84172,10.0086
1036.16,10.9151,35.01,3.20907,2.86293,10.0767
1043.16,10.9318,35.01,3.2048,2.88417,10.1448
1050.16,10.9486,35.01,3.19872,2.90545,10.2128
1057.16,10.9656,35.01,3.19228,2.92676,10.2809
1064.16,10.9827,35.01,3.18649,2.9481,10.349
1071.16,11,35.01,3.18191,2.96947,10.4171
1078.16,11.0174,35.01,3.17787,2.99088,10.4851
1085.16,11.035,35.01,3.17364,3.01232,10.5532
1092.16,11.0528,35.01,3.168,3.0338,10.6213
1099.16,11.0707,35.01,3.16135,3.05531,10.6894
1106.16,11.0888,35.01,3.15504,3.07686,10.7574
1113.16,11.1071,35.01,3.15363,3.09844,10.8255
1120.16,11.1255,35.01,3.14741,3.12006,10.8936
1127.16,11.1441,35.01,3.14168,3.14171,10.9617
1134.16,11.1629,35.01,3.13587,3.1634,11.0297
1141.16,11.1819,35.01,3.13031,3.18513,11.0978
1148.16,11.2011,35.01,3.12462,3.20689,11.1659
1155.16,11.2206,35.01,3.12028,3.22869,11.234
1162.16,11.2403,35.01,3.11385,3.25053,11.302
1169.16,11.2604,35.01,3.10877,3.27241,11.3701
1176.16,11.2807,35.01,3.1042,3.29433,11.4382
1183.16,11.3014,35.01,3.09764,3.31628,11.5063
1190.16,11.3225,35.01,3.09264,3.33828,11.5743
1197.16,11.344,35.01,3.08679,3.36032,11.6424
1204.16,11.366,35.01,3.08174,3.3824,11.7105
1211.16,11.3885,35.01,3.07444,3.40453,11.7786
1218.16,11.4115,35.01,3.06697,3.4267,11.8466
1225.16,11.4352,35.01,3.06233,3.44892,11.9147
1232.16,11.4596,35.01,3.0547,3.47118,11.9828
1239.16,11.4847,35.01,3.04946,3.49349,12.0509
1246.16,11.5106,35.01,3.04077,3.51585,12.1189
1253.16,11.5373,35.01,3.03365,3.53826,12.187
1260.16,11.565,35.01,3.02664,3.56072,12.2551
1267.16,11.5938,35.01,3.02115,3.58324,12.3232
1274.16,11.6237,35.01,3.01273,3.60582,12.3912
1281.16,11.6548,35.01,3.0043,3.62845,12.4593
1288.16,11.6873,35.01,2.99653,3.65115,12.5274
1295.16,11.7212,35.01,2.98815,3.67392,12.5955
1302.16,11.7568,35.01,2.97884,3.69675,12.6635
1309.16,11.7941,35.01,2.96666,3.71965,12.7316
1316.16,11.8334,35.01,2.95967,3.74262,12.7997
1323.16,11.8748,35.01,2.94919,3.76568,12.8678
1330.16,11.9188,35.01,2.9375,3.78882,12.9358
1337.16,11.9657,35.01,2.92529,3.81204,13.0039
1344.16,12.0161,35.01,2.91432,3.83537,13.072
1351.16,12.0705,35.01,2.90143,3.85879,13.1401
1358.16,12.1302,35.01,2.88635,3.88233,13.2081
1365.16,12.1965,35.01,2.87088,3.90599,13.2762
1372.16,12.272,35.01,2.85287,3.92978,13.3443
1379.16,12.3607,35.01,2.83147,3.95374,13.4124
1386.16,12.4706,35.01,2.80793,3.97789,13.4804
1393.16,12.6196,35.01,2.77516,4.0023,13.5485
1400.16,12.8652,35.01,2.72239,4.02709,13.6166
1402.01,12.9722,35.01,2.6981,4.03373,13.6346
1403.74,13.1125,35.01,2.66957,4.03998,13.6513
1404.91,13.2555,35.01,2.64043,4.04427,13.6627
1405.52,13.3607,35.01,2.62078,4.04654,13.6687
1405.96,13.4628,35.01,2.59953,4.04819,13.673
1406.18,13.5251,35.01,2.58835,4.04899,13.6751
1406.37,13.5926,35.01,2.57708,4.04973,13.677
1406.73,13.7481,35.01,2.54461,4.05107,13.6804
1406.98,13.9189,35.01,2.51586,4.05203,13.6828
1407.05,13.9936,35.01,2.50397,4.0523,13.6835
1407.06,14.004,35.01,2.50071,4.05234,13.6836