File: output/use_case_1_0.5E.csv
Time [s],Current [A],Power [W],Voltage [V],Capacity [Ah],Energy [Wh]
0.0,2.12495,8.75,4.11734,0.0,0.0
26.1148,2.14362,8.75,4.08256,0.0154965,0.0634734
60.1148,2.15464,8.75,4.0616,0.0358004,0.146112
94.1148,2.16151,8.75,4.04801,0.0561852,0.228751
128.115,2.16641,8.75,4.03895,0.0766245,0.31139
162.115,2.1701,8.75,4.03239,0.0971037,0.394029
196.115,2.17293,8.75,4.02655,0.117613,0.476668
230.115,2.17511,8.75,4.02162,0.138147,0.559307
264.115,2.17678,8.75,4.01814,0.158698,0.641946
298.115,2.17805,8.75,4.01675,0.179263,0.724584
332.115,2.17901,8.75,4.01608,0.199838,0.807223
366.115,2.17974,8.75,4.01426,0.220421,0.889862
400.115,2.18029,8.75,4.01319,0.241011,0.972501
434.115,2.18074,8.75,4.01274,0.261604,1.05514
468.115,2.18112,8.75,4.01294,0.282202,1.13778
502.115,2.18147,8.75,4.01235,0.302803,1.22042
536.115,2.18182,8.75,4.0115,0.323408,1.30306
570.115,2.18219,8.75,4.00932,0.344016,1.3857
604.115,2.18259,8.75,4.01058,0.364627,1.46833
638.115,2.18306,8.75,4.00723,0.385243,1.55097
672.115,2.18359,8.75,4.00711,0.405863,1.63361
706.115,2.18421,8.75,4.00563,0.426489,1.71625
740.115,2.18493,8.75,4.00464,0.447121,1.79889
774.115,2.18575,8.75,4.00408,0.46776,1.88153
808.115,2.18669,8.75,4.00144,0.488408,1.96417
842.115,2.18774,8.75,3.99885,0.509065,2.04681
876.115,2.18891,8.75,3.99696,0.529732,2.12945
910.115,2.19018,8.75,3.99483,0.550412,2.21208
944.115,2.19157,8.75,3.99363,0.571103,2.29472
978.115,2.19306,8.75,3.99091,0.591809,2.37736
1012.11,2.19464,8.75,3.98866,0.612528,2.46
1046.11,2.19632,8.75,3.98429,0.633264,2.54264
1080.11,2.19808,8.75,3.97994,0.654015,2.62528
1114.11,2.19991,8.75,3.9771,0.674784,2.70792
1148.11,2.20181,8.75,3.97335,0.69557,2.79056
1182.11,2.20378,8.75,3.97181,0.716374,2.8732
1216.11,2.20579,8.75,3.96814,0.737198,2.95583
1250.11,2.20784,8.75,3.96246,0.75804,3.03847
1284.11,2.20994,8.75,3.95836,0.778902,3.12111
1318.11,2.21206,8.75,3.95527,0.799784,3.20375
1352.11,2.21421,8.75,3.95128,0.820686,3.28639
1386.11,2.21637,8.75,3.94788,0.841608,3.36903
1420.11,2.21854,8.75,3.94396,0.862551,3.45167
1454.11,2.22072,8.75,3.94021,0.883515,3.53431
1488.11,2.22291,8.75,3.93482,0.904499,3.61695
1522.11,2.22509,8.75,3.93343,0.925504,3.69958
1556.11,2.22726,8.75,3.92863,0.946529,3.78222
1590.11,2.22943,8.75,3.92431,0.967575,3.86486
1624.11,2.23159,8.75,3.92222,0.988641,3.9475
1658.11,2.23373,8.75,3.9167,1.00973,4.03014
1692.11,2.23586,8.75,3.9138,1.03083,4.11278
1726.11,2.23797,8.75,3.90901,1.05196,4.19542
1760.11,2.24007,8.75,3.90694,1.07311,4.27806
1794.11,2.24216,8.75,3.90328,1.09427,4.3607
1828.11,2.24423,8.75,3.89931,1.11546,4.44333
1862.11,2.2463,8.75,3.89422,1.13667,4.52597
1896.11,2.24835,8.75,3.89224,1.15789,4.60861
1930.11,2.2504,8.75,3.88944,1.17914,4.69125
1964.11,2.25245,8.75,3.88403,1.2004,4.77389
1998.11,2.2545,8.75,3.88164,1.22168,4.85653
2032.11,2.25655,8.75,3.87826,1.24298,4.93917
2066.11,2.25862,8.75,3.87484,1.26431,5.02181
2100.11,2.2607,8.75,3.87035,1.28565,5.10445
2134.11,2.26279,8.75,3.86736,1.30701,5.18708
2168.11,2.2649,8.75,3.86461,1.32839,5.26972
2202.11,2.26703,8.75,3.86127,1.34979,5.35236
2236.11,2.26918,8.75,3.8563,1.37121,5.435
2270.11,2.27135,8.75,3.85328,1.39265,5.51764
2304.11,2.27356,8.75,3.8456,1.41412,5.60028
2338.11,2.27579,8.75,3.84347,1.4356,5.68292
2372.11,2.27805,8.75,3.8425,1.4571,5.76556
2406.11,2.28034,8.75,3.8372,1.47863,5.8482
2440.11,2.28267,8.75,3.83253,1.50018,5.93083
2474.11,2.28505,8.75,3.82939,1.52175,6.01347
2508.11,2.28747,8.75,3.82521,1.54334,6.09611
2542.11,2.28993,8.75,3.82201,1.56496,6.17875
2576.11,2.29246,8.75,3.81579,1.5866,6.26139
2610.11,2.29504,8.75,3.8126,1.60826,6.34403
2644.11,2.29769,8.75,3.80773,1.62995,6.42667
2678.11,2.30041,8.75,3.80306,1.65166,6.50931
2712.11,2.30321,8.75,3.79886,1.6734,6.59195
2746.11,2.30607,8.75,3.79396,1.69517,6.67458
2780.11,2.309,8.75,3.78976,1.71696,6.75722
2814.11,2.31199,8.75,3.78443,1.73878,6.83986
2848.11,2.31503,8.75,3.78035,1.76063,6.9225
2882.11,2.31808,8.75,3.77492,1.78251,7.00514
2916.11,2.32114,8.75,3.76891,1.80442,7.08778
2950.11,2.32418,8.75,3.76322,1.82636,7.17042
2984.11,2.32719,8.75,3.75995,1.84832,7.25306
3018.11,2.33015,8.75,3.75556,1.87032,7.3357
3052.11,2.33307,8.75,3.75,1.89234,7.41833
3086.11,2.33594,8.75,3.74493,1.91438,7.50097
3120.11,2.33878,8.75,3.74124,1.93646,7.58361
3154.11,2.34158,8.75,3.73785,1.95856,7.66625
3188.11,2.34436,8.75,3.73138,1.98069,7.74889
3222.11,2.34712,8.75,3.72814,2.00285,7.83153
3256.11,2.34987,8.75,3.72218,2.02503,7.91417
3290.11,2.35263,8.75,3.72073,2.04723,7.99681
3324.11,2.35539,8.75,3.71527,2.06947,8.07945
3358.11,2.35815,8.75,3.71076,2.09172,8.16208
3392.11,2.36094,8.75,3.70452,2.11401,8.24472
3426.11,2.36373,8.75,3.70087,2.13632,8.32736
3460.11,2.36654,8.75,3.69759,2.15866,8.41
3494.11,2.36937,8.75,3.69285,2.18102,8.49264
3528.11,2.3722,8.75,3.68919,2.20341,8.57528
3562.11,2.37504,8.75,3.68548,2.22583,8.65792
3596.11,2.37789,8.75,3.68079,2.24828,8.74056
3630.11,2.38073,8.75,3.67489,2.27075,8.8232
3664.11,2.38357,8.75,3.67177,2.29325,8.90583
3698.11,2.3864,8.75,3.6673,2.31577,8.98847
3732.11,2.38921,8.75,3.66375,2.33832,9.07111
3766.11,2.39201,8.75,3.65727,2.3609,9.15375
3800.11,2.39478,8.75,3.65384,2.38351,9.23639
3834.11,2.39752,8.75,3.65012,2.40614,9.31903
3868.11,2.40023,8.75,3.64521,2.42879,9.40167
3902.11,2.40291,8.75,3.64008,2.45148,9.48431
3936.11,2.40555,8.75,3.63571,2.47418,9.56695
3970.11,2.40815,8.75,3.63443,2.49691,9.64958
4004.11,2.41071,8.75,3.62929,2.51967,9.73222
4038.11,2.41323,8.75,3.62483,2.54245,9.81486
4072.11,2.41571,8.75,3.62243,2.56525,9.8975
4106.11,2.41816,8.75,3.61874,2.58808,9.98014
4140.11,2.42056,8.75,3.61626,2.61093,10.0628
4174.11,2.42293,8.75,3.6116,2.6338,10.1454
4208.11,2.42526,8.75,3.60805,2.6567,10.2281
4242.11,2.42756,8.75,3.60552,2.67961,10.3107
4276.11,2.42983,8.75,3.6012,2.70255,10.3933
4310.11,2.43208,8.75,3.59856,2.72551,10.476
4344.11,2.4343,8.75,3.59505,2.74849,10.5586
4378.11,2.4365,8.75,3.59109,2.77149,10.6413
4412.11,2.43869,8.75,3.58688,2.79452,10.7239
4446.11,2.44086,8.75,3.58357,2.81756,10.8065
4480.11,2.44303,8.75,3.5802,2.84062,10.8892
4514.11,2.44519,8.75,3.57815,2.86371,10.9718
4548.11,2.44734,8.75,3.57569,2.88681,11.0544
4582.11,2.4495,8.75,3.57382,2.90993,11.1371
4616.11,2.45166,8.75,3.5688,2.93308,11.2197
4650.11,2.45383,8.75,3.56528,2.95624,11.3024
4684.11,2.45601,8.75,3.56103,2.97943,11.385
4718.11,2.4582,8.75,3.56143,3.00264,11.4676
4752.11,2.46041,8.75,3.55431,3.02586,11.5503
4786.11,2.46264,8.75,3.55347,3.04911,11.6329
4820.11,2.46489,8.75,3.5495,3.07238,11.7156
4854.11,2.46717,8.75,3.54661,3.09567,11.7982
4888.11,2.46947,8.75,3.54291,3.11898,11.8808
4922.11,2.47181,8.75,3.54022,3.14232,11.9635
4956.11,2.47419,8.75,3.53836,3.16567,12.0461
4990.11,2.4766,8.75,3.5338,3.18905,12.1288
5024.11,2.47906,8.75,3.52932,3.21245,12.2114
5058.11,2.48157,8.75,3.52644,3.23588,12.294
5092.11,2.48413,8.75,3.52117,3.25933,12.3767
5126.11,2.48674,8.75,3.51897,3.2828,12.4593
5160.11,2.48941,8.75,3.5156,3.3063,12.5419
5194.11,2.49215,8.75001,3.51112,3.32983,12.6246
5228.11,2.49496,8.75,3.50869,3.35338,12.7072
5262.11,2.49784,8.75,3.50269,3.37695,12.7899
5296.11,2.50081,8.75,3.49984,3.40056,12.8725
5330.11,2.50385,8.75,3.49512,3.42419,12.9551
5364.11,2.50698,8.75001,3.49197,3.44785,13.0378
5398.11,2.51021,8.75,3.48561,3.47155,13.1204
5432.11,2.51352,8.75,3.48184,3.49527,13.2031
5466.11,2.51693,8.75,3.47629,3.51903,13.2857
5500.11,2.52042,8.75,3.47034,3.54281,13.3683
5534.11,2.52399,8.75001,3.4672,3.56664,13.451
5568.11,2.52765,8.75,3.46183,3.59049,13.5336
5602.11,2.53137,8.75,3.45795,3.61438,13.6163
5636.11,2.53514,8.75,3.45178,3.63831,13.6989
5670.11,2.53895,8.75,3.44738,3.66227,13.7815
5704.11,2.5428,8.75,3.43981,3.68627,13.8642
5738.11,2.54665,8.75,3.43704,3.7103,13.9468
5772.11,2.55051,8.75,3.42885,3.73437,14.0294
5806.11,2.55434,8.75,3.42529,3.75848,14.1121
5840.11,2.55815,8.75,3.41994,3.78262,14.1947
5874.11,2.56192,8.75,3.41407,3.8068,14.2774
5908.11,2.56564,8.75,3.40966,3.83101,14.36
5942.11,2.56931,8.75,3.40656,3.85526,14.4426
5976.11,2.57292,8.75,3.40164,3.87955,14.5253
6010.11,2.57648,8.75,3.39615,3.90386,14.6079
6044.11,2.57998,8.75,3.3906,3.92821,14.6906
6078.11,2.58344,8.75,3.38651,3.9526,14.7732
6112.11,2.58686,8.75,3.384,3.97701,14.8558
6146.11,2.59026,8.75,3.37687,4.00146,14.9385
6180.11,2.59365,8.75,3.37338,4.02594,15.0211
6214.11,2.59705,8.75,3.36768,4.05045,15.1038
6248.11,2.60048,8.75,3.36509,4.075,15.1864
6282.11,2.60398,8.75,3.36115,4.09957,15.269
6316.11,2.60756,8.75001,3.35602,4.12418,15.3517
6350.11,2.61128,8.75,3.35218,4.14883,15.4343
6384.11,2.61515,8.74999,3.34417,4.17351,15.5169
6418.11,2.61924,8.75,3.34034,4.19823,15.5996
6452.11,2.62359,8.74998,3.33444,4.22299,15.6822
6486.11,2.62826,8.75,3.32814,4.24779,15.7649
6520.11,2.63333,8.75,3.32489,4.27263,15.8475
6554.11,2.6389,8.75,3.31392,4.29753,15.9301
6588.11,2.64508,8.74999,3.30937,4.32248,16.0128
6622.11,2.65202,8.74999,3.30023,4.3475,16.0954
6656.11,2.65985,8.75002,3.29062,4.37258,16.1781
6690.11,2.66876,8.75001,3.28083,4.39774,16.2607
6724.11,2.67889,8.74998,3.26639,4.423,16.3433
6758.11,2.69033,8.74999,3.25285,4.44835,16.426
6792.11,2.70313,8.74999,3.23483,4.47382,16.5086
6826.11,2.7172,8.75,3.22056,4.49942,16.5913
6860.11,2.73239,8.74998,3.20512,4.52516,16.6739
6894.11,2.74845,8.75002,3.18405,4.55104,16.7565
6928.11,2.76511,8.75003,3.16415,4.57708,16.8392
6962.11,2.78213,8.74997,3.14753,4.60327,16.9218
6996.11,2.79933,8.75001,3.12444,4.62963,17.0044
7030.11,2.81669,8.74996,3.10644,4.65616,17.0871
7064.11,2.8343,8.75003,3.08733,4.68284,17.1697
7098.11,2.85244,8.75002,3.06812,4.7097,17.2524
7132.11,2.8715,8.75002,3.04714,4.73673,17.335
7166.11,2.89206,8.75,3.02645,4.76395,17.4176
7200.11,2.91483,8.74998,3.00154,4.79137,17.5003
7234.11,2.94075,8.74997,2.97663,4.81902,17.5829
7268.11,2.97101,8.74997,2.94443,4.84694,17.6656
7302.11,3.00718,8.75004,2.90806,4.87517,17.7482
7336.11,3.05144,8.75001,2.86882,4.90378,17.8308
7370.11,3.10688,8.74995,2.81633,4.93286,17.9135
7404.11,3.17817,8.74998,2.75459,4.96253,17.9961
7437.06,3.26946,8.75006,2.67631,4.99203,18.0762
7469.41,3.39179,8.75007,2.57958,5.02195,18.1548
7490.77,3.50002,8.75005,2.49999,5.04239,18.2067