File: output/use_case_2_2.0E.csv
Time [s],Current [A],Power [W],Voltage [V],Capacity [Ah],Energy [Wh]
0.0,0.0,0.0,4.09697,0.0,0.0
0.12,0.0,0.0,4.09623,0.0,0.0
0.48,0.0,0.0,4.09581,0.0,0.0
1.92,0.0,0.0,4.0961,0.0,0.0
3.92,0.0,0.0,4.09587,0.0,0.0
5.92,0.0,0.0,4.0958,0.0,0.0
7.92,0.0,0.0,4.09786,0.0,0.0
9.92,0.0,0.0,4.09667,0.0,0.0
11.92,0.0,0.0,4.09762,0.0,0.0
13.92,0.0,0.0,4.09798,0.0,0.0
15.92,0.0,0.0,4.09704,0.0,0.0
17.92,0.0,0.0,4.09644,0.0,0.0
19.92,0.0,0.0,4.09861,0.0,0.0
21.92,0.0,0.0,4.09745,0.0,0.0
23.92,0.0,0.0,4.09577,0.0,0.0
25.92,0.0,0.0,4.09731,0.0,0.0
27.92,0.0,0.0,4.09626,0.0,0.0
29.92,0.0,0.0,4.09734,0.0,0.0
31.92,0.0,0.0,4.09592,0.0,0.0
33.92,0.0,0.0,4.09783,0.0,0.0
35.92,0.0,0.0,4.09672,0.0,0.0
37.92,0.0,0.0,4.09747,0.0,0.0
39.92,0.0,0.0,4.09703,0.0,0.0
41.92,0.0,0.0,4.09676,0.0,0.0
43.92,0.0,0.0,4.09639,0.0,0.0
45.92,0.0,0.0,4.09632,0.0,0.0
47.92,0.0,0.0,4.09483,0.0,0.0
49.92,0.0,0.0,4.09526,0.0,0.0
51.92,0.0,0.0,4.09472,0.0,0.0
53.92,0.0,0.0,4.09769,0.0,0.0
55.92,0.0,0.0,4.09775,0.0,0.0
57.92,0.0,0.0,4.09582,0.0,0.0
59.92,0.0,0.0,4.09659,0.0,0.0
60,8.95855,35.01,3.90762,1.76818e-17,6.91003e-17
60.0078,8.95859,35.01,3.90805,1.9488e-05,7.61589e-05
60.0313,8.95872,35.01,3.90636,7.79528e-05,0.000304636
60.1253,8.95921,35.01,3.90718,0.000311823,0.00121854
60.3132,8.96018,35.01,3.90597,0.000779607,0.00304636
60.5638,8.96145,35.01,3.90571,0.0014034,0.00548344
61.065,8.96396,35.01,3.90555,0.0026513,0.0103576
62.0674,8.96884,35.01,3.9023,0.00514828,0.0201059
63.0698,8.97367,35.01,3.9022,0.00764661,0.0298543
64.0722,8.97849,35.01,3.89912,0.0101463,0.0396026
66.0722,8.98829,35.01,3.89536,0.0151384,0.0590526
68.0722,8.99839,35.01,3.8908,0.0201361,0.0785026
70.0,9.00839,35.01,3.88439,0.0249586,0.09725
70.0147,0.0,0.0,4.07108,0.0249586,0.09725
70.0589,0.0,0.0,4.07038,0.0249586,0.09725
70.1767,0.0,0.0,4.07088,0.0249586,0.09725
70.2945,0.0,0.0,4.06957,0.0249586,0.09725
70.53,0.0,0.0,4.07243,0.0249586,0.09725
70.8834,0.0,0.0,4.07133,0.0249586,0.09725
71.5901,0.0,0.0,4.07275,0.0249586,0.09725
72.4152,0.0,0.0,4.07454,0.0249586,0.09725
73.2403,0.0,0.0,4.07643,0.0249586,0.09725
74.0655,0.0,0.0,4.07819,0.0249586,0.09725
75.7158,0.0,0.0,4.0782,0.0249586,0.09725
77.3661,0.0,0.0,4.08053,0.0249586,0.09725
79.0163,0.0,0.0,4.07963,0.0249586,0.09725
80.6666,0.0,0.0,4.08003,0.0249586,0.09725
82.3169,0.0,0.0,4.08142,0.0249586,0.09725
84.3169,0.0,0.0,4.08349,0.0249586,0.09725
86.3169,0.0,0.0,4.08489,0.0249586,0.09725
88.3169,0.0,0.0,4.08317,0.0249586,0.09725
90.3169,0.0,0.0,4.08464,0.0249586,0.09725
92.3169,0.0,0.0,4.0853,0.0249586,0.09725
94.3169,0.0,0.0,4.08596,0.0249586,0.09725
96.3169,0.0,0.0,4.08716,0.0249586,0.09725
98.3169,0.0,0.0,4.08784,0.0249586,0.09725
100.317,0.0,0.0,4.08858,0.0249586,0.09725
102.317,0.0,0.0,4.08691,0.0249586,0.09725
104.317,0.0,0.0,4.09063,0.0249586,0.09725
106.317,0.0,0.0,4.09049,0.0249586,0.09725
108.317,0.0,0.0,4.08923,0.0249586,0.09725
110.317,0.0,0.0,4.09039,0.0249586,0.09725
112.317,0.0,0.0,4.09093,0.0249586,0.09725
114.317,0.0,0.0,4.09063,0.0249586,0.09725
116.317,0.0,0.0,4.09054,0.0249586,0.09725
118.317,0.0,0.0,4.08957,0.0249586,0.09725
120.317,0.0,0.0,4.09378,0.0249586,0.09725
122.317,0.0,0.0,4.09124,0.0249586,0.09725
124.317,0.0,0.0,4.0931,0.0249586,0.09725
126.317,0.0,0.0,4.0918,0.0249586,0.09725
128.317,0.0,0.0,4.09253,0.0249586,0.09725
130.317,0.0,0.0,4.09137,0.0249586,0.09725
132.317,0.0,0.0,4.09286,0.0249586,0.09725
134.317,0.0,0.0,4.09336,0.0249586,0.09725
136.317,0.0,0.0,4.09115,0.0249586,0.09725
138.317,0.0,0.0,4.09568,0.0249586,0.09725
140.317,0.0,0.0,4.09336,0.0249586,0.09725
142.317,0.0,0.0,4.09486,0.0249586,0.09725
144.317,0.0,0.0,4.09238,0.0249586,0.09725
146.317,0.0,0.0,4.09387,0.0249586,0.09725
148.317,0.0,0.0,4.0926,0.0249586,0.09725
150.317,0.0,0.0,4.09357,0.0249586,0.09725
152.317,0.0,0.0,4.09237,0.0249586,0.09725
154.317,0.0,0.0,4.09278,0.0249586,0.09725
156.317,0.0,0.0,4.09339,0.0249586,0.09725
158.317,0.0,0.0,4.09385,0.0249586,0.09725
160.317,0.0,0.0,4.0926,0.0249586,0.09725
162.317,0.0,0.0,4.09469,0.0249586,0.09725
164.317,0.0,0.0,4.09358,0.0249586,0.09725
166.317,0.0,0.0,4.09187,0.0249586,0.09725
168.317,0.0,0.0,4.09224,0.0249586,0.09725
170.317,0.0,0.0,4.09534,0.0249586,0.09725
172.317,0.0,0.0,4.09375,0.0249586,0.09725
174.317,0.0,0.0,4.09349,0.0249586,0.09725
176.317,0.0,0.0,4.09285,0.0249586,0.09725
178.317,0.0,0.0,4.09562,0.0249586,0.09725
180.317,0.0,0.0,4.09332,0.0249586,0.09725
182.317,0.0,0.0,4.09364,0.0249586,0.09725
184.317,0.0,0.0,4.09481,0.0249586,0.09725
186.317,0.0,0.0,4.09452,0.0249586,0.09725
188.317,0.0,0.0,4.09526,0.0249586,0.09725
190.317,0.0,0.0,4.09659,0.0249586,0.09725
192.317,0.0,0.0,4.09257,0.0249586,0.09725
194.317,0.0,0.0,4.09474,0.0249586,0.09725
196.317,0.0,0.0,4.09314,0.0249586,0.09725
198.317,0.0,0.0,4.09293,0.0249586,0.09725
200.317,0.0,0.0,4.09329,0.0249586,0.09725
202.317,0.0,0.0,4.09359,0.0249586,0.09725
204.317,0.0,0.0,4.0936,0.0249586,0.09725
206.317,0.0,0.0,4.09329,0.0249586,0.09725
208.317,0.0,0.0,4.09428,0.0249586,0.09725
210.317,0.0,0.0,4.09617,0.0249586,0.09725
212.317,0.0,0.0,4.09455,0.0249586,0.09725
214.317,0.0,0.0,4.09406,0.0249586,0.09725
216.317,0.0,0.0,4.09459,0.0249586,0.09725
218.317,0.0,0.0,4.09426,0.0249586,0.09725
220.317,0.0,0.0,4.09375,0.0249586,0.09725
222.317,0.0,0.0,4.09526,0.0249586,0.09725
224.317,0.0,0.0,4.09459,0.0249586,0.09725
226.317,0.0,0.0,4.09427,0.0249586,0.09725
228.317,0.0,0.0,4.09561,0.0249586,0.09725
230.317,0.0,0.0,4.09531,0.0249586,0.09725
232.317,0.0,0.0,4.09427,0.0249586,0.09725
234.317,0.0,0.0,4.09475,0.0249586,0.09725
236.317,0.0,0.0,4.09456,0.0249586,0.09725
238.317,0.0,0.0,4.09384,0.0249586,0.09725
240.317,0.0,0.0,4.09574,0.0249586,0.09725
242.317,0.0,0.0,4.09533,0.0249586,0.09725
244.317,0.0,0.0,4.09601,0.0249586,0.09725
246.317,0.0,0.0,4.09653,0.0249586,0.09725
248.317,0.0,0.0,4.09567,0.0249586,0.09725
250.317,0.0,0.0,4.09495,0.0249586,0.09725
252.317,0.0,0.0,4.09564,0.0249586,0.09725
254.317,0.0,0.0,4.0958,0.0249586,0.09725
256.317,0.0,0.0,4.09385,0.0249586,0.09725
258.317,0.0,0.0,4.09457,0.0249586,0.09725
260.317,0.0,0.0,4.09327,0.0249586,0.09725
262.317,0.0,0.0,4.09459,0.0249586,0.09725
264.317,0.0,0.0,4.09517,0.0249586,0.09725
266.317,0.0,0.0,4.09568,0.0249586,0.09725
268.317,0.0,0.0,4.09486,0.0249586,0.09725
270.317,0.0,0.0,4.09473,0.0249586,0.09725
272.317,0.0,0.0,4.09305,0.0249586,0.09725
274.317,0.0,0.0,4.09514,0.0249586,0.09725
276.317,0.0,0.0,4.09529,0.0249586,0.09725
278.317,0.0,0.0,4.09455,0.0249586,0.09725
280.317,0.0,0.0,4.0969,0.0249586,0.09725
282.317,0.0,0.0,4.09537,0.0249586,0.09725
284.317,0.0,0.0,4.09489,0.0249586,0.09725
286.317,0.0,0.0,4.0958,0.0249586,0.09725
288.317,0.0,0.0,4.09527,0.0249586,0.09725
290.317,0.0,0.0,4.09541,0.0249586,0.09725
292.317,0.0,0.0,4.09716,0.0249586,0.09725
294.317,0.0,0.0,4.09382,0.0249586,0.09725
296.317,0.0,0.0,4.0949,0.0249586,0.09725
298.317,0.0,0.0,4.09292,0.0249586,0.09725
300.317,0.0,0.0,4.09448,0.0249586,0.09725
302.317,0.0,0.0,4.09444,0.0249586,0.09725
304.317,0.0,0.0,4.09474,0.0249586,0.09725
306.317,0.0,0.0,4.09594,0.0249586,0.09725
308.317,0.0,0.0,4.09484,0.0249586,0.09725
310.317,0.0,0.0,4.09379,0.0249586,0.09725
312.317,0.0,0.0,4.09624,0.0249586,0.09725
314.317,0.0,0.0,4.09532,0.0249586,0.09725
316.317,0.0,0.0,4.09665,0.0249586,0.09725
318.317,0.0,0.0,4.09502,0.0249586,0.09725
320.317,0.0,0.0,4.09387,0.0249586,0.09725
322.317,0.0,0.0,4.09587,0.0249586,0.09725
324.317,0.0,0.0,4.09477,0.0249586,0.09725
326.317,0.0,0.0,4.09685,0.0249586,0.09725
328.317,0.0,0.0,4.09503,0.0249586,0.09725
330.317,0.0,0.0,4.09753,0.0249586,0.09725
332.317,0.0,0.0,4.09581,0.0249586,0.09725
334.317,0.0,0.0,4.09486,0.0249586,0.09725
336.317,0.0,0.0,4.09583,0.0249586,0.09725
338.317,0.0,0.0,4.09566,0.0249586,0.09725
340.317,0.0,0.0,4.09434,0.0249586,0.09725
342.317,0.0,0.0,4.09643,0.0249586,0.09725
344.317,0.0,0.0,4.09384,0.0249586,0.09725
346.317,0.0,0.0,4.09416,0.0249586,0.09725
348.317,0.0,0.0,4.09372,0.0249586,0.09725
350.317,0.0,0.0,4.09572,0.0249586,0.09725
352.317,0.0,0.0,4.09439,0.0249586,0.09725
354.317,0.0,0.0,4.09674,0.0249586,0.09725
356.317,0.0,0.0,4.09405,0.0249586,0.09725
358.317,0.0,0.0,4.09605,0.0249586,0.09725
360.317,0.0,0.0,4.0955,0.0249586,0.09725
362.317,0.0,0.0,4.09409,0.0249586,0.09725
364.317,0.0,0.0,4.09563,0.0249586,0.09725
366.317,0.0,0.0,4.09501,0.0249586,0.09725
368.317,0.0,0.0,4.09503,0.0249586,0.09725
370.0,0.0,0.0,4.09658,0.0249586,0.09725