File: output/use_case_4.csv
Time [s],Current [A],Power [W],Voltage [V],Capacity [Ah],Energy [Wh]
0.0,-8.33777e-13,-3.12739e-12,3.75163,-0.0,-0.0
20.0,-3.45348e-49,-1.29544e-48,3.7513,-0.000286276,-0.00108347
40.0,-0.891716,-3.37113,3.7783,-0.00155172,-0.00586168
60.0,6.39162e-46,2.40252e-45,3.75858,-0.00558689,-0.0211271
80.0,-4.41739e-50,-1.65895e-49,3.75505,-0.00558689,-0.0211271
100.0,1.59304,5.89167,3.70008,-8.6445e-05,-0.00072281
120.0,1.49709,5.53411,3.69684,0.00462088,0.0167136
140.0,2.30099,8.42787,3.66246,0.0164531,0.0601644
160.0,2.45731,8.96724,3.65014,0.0295114,0.107907
180.0,1.9424,7.10321,3.65557,0.041109,0.150286
200.0,2.66411,9.67628,3.63211,0.054743,0.199919
220.0,2.64465,9.58735,3.6248,0.0696161,0.253877
240.0,1.6394,5.9924,3.65492,0.076319,0.278358
260.0,2.64821,9.59372,3.62239,0.0897854,0.327252
280.0,3.08308,11.1166,3.60384,0.105317,0.383405
300.0,1.4891,5.42896,3.64529,0.115432,0.420087
320.0,1.30276,4.7617,3.65396,0.122089,0.444361
340.0,2.68648e-71,9.9399e-71,3.70099,0.124311,0.452489
360.0,-4.79334e-72,-1.77692e-71,3.70782,0.124311,0.452489
380.0,0.735082,2.71137,3.68737,0.124706,0.453945
400.0,6.2501e-55,2.32041e-54,3.71136,0.125415,0.456558
420.0,-6.17913e-55,-2.29552e-54,3.7149,0.125415,0.456558
440.0,3.81554e-55,1.41807e-54,3.71741,0.125415,0.456558
460.0,-2.38624e-56,-8.87156e-56,3.71811,0.125415,0.456558
480.0,9.55273e-60,3.55302e-59,3.71861,0.125012,0.455055
500.0,-0.865401,-3.24603,3.75061,0.122317,0.444968
520.0,-1.37939,-5.20955,3.77529,0.114713,0.416284
540.0,-0.300024,-1.12371,3.74662,0.110198,0.399259
560.0,-3.32e-42,-1.23919e-41,3.73184,0.109311,0.395937
580.0,-2.89224e-42,-1.07884e-41,3.73017,0.109311,0.395937
600.0,-0.69188,-2.59596,3.75305,0.108264,0.392019
620.0,-1.48414,-5.61729,3.78518,0.101692,0.367219
640.0,-2.88219e-51,-1.079e-50,3.74277,0.0961373,0.34622
660.0,-0.504262,-1.8945,3.75675,0.0939782,0.338105
680.0,-1.54252,-5.8549,3.79503,0.0868651,0.311164
700.0,-9.1527e-55,-3.43064e-54,3.75058,0.0826141,0.295058
720.0,-9.68809e-59,-3.62585e-58,3.74247,0.0826141,0.295058
740.0,-1.06473e-58,-3.98208e-58,3.7414,0.0826141,0.295058
760.0,1.51589e-59,5.66728e-59,3.73893,0.0826141,0.295058
780.0,-9.7236e-61,-3.63441e-60,3.7382,0.0826141,0.295058
800.0,-1.14563e-66,-4.28111e-66,3.73763,0.0828218,0.295829
820.0,-4.56252e-57,-1.70419e-56,3.73484,0.0835473,0.298528
840.0,-0.0931948,-0.348415,3.73875,0.0835214,0.298431
860.0,-0.690605,-2.59543,3.75764,0.0826776,0.295269
880.0,-1.07135,-4.04711,3.77794,0.0775236,0.275835
900.0,-2.05107,-7.83329,3.81864,0.066615,0.234258
920.0,4.21215e-58,1.58125e-57,3.75305,0.063131,0.220968
940.0,1.07021,3.97362,3.71304,0.0647331,0.226933
960.0,-1.51129e-64,-5.65536e-64,3.74393,0.0661018,0.232006
980.0,1.83685,6.76183,3.68158,0.0705823,0.248575
1000.0,1.60953,5.909,3.67301,0.0832807,0.29504
1020.0,1.25659,4.63078,3.686,0.0860152,0.305118
1040.0,1.01203,3.73736,3.69307,0.0897138,0.318733
1060.0,2.29235,8.3658,3.65113,0.0990257,0.352879
1080.0,1.61292,5.90207,3.6578,0.109838,0.392373
1100.0,0.856986,3.16187,3.68926,0.1103,0.394077
1120.0,1.96464,7.17524,3.65231,0.118413,0.423826
1140.0,1.7782,6.4923,3.65092,0.128005,0.458884
1160.0,-2.49365e-51,-9.24706e-51,3.70735,0.130338,0.467407
1180.0,5.96286e-52,2.21463e-51,3.71519,0.130338,0.467407
1200.0,9.91852e-61,3.68689e-60,3.71821,0.130338,0.467407
1220.0,-1.08276,-4.06643,3.75473,0.127936,0.45842
1240.0,-1.26498,-4.76846,3.76963,0.122227,0.436958
1260.0,-2.03005,-7.71529,3.80038,0.113806,0.405101
1280.0,1.2957e-52,4.85278e-52,3.74382,0.106306,0.376601
1300.0,0.262944,0.980644,3.73046,0.106353,0.376778
1320.0,7.21735e-66,2.69296e-65,3.733,0.10863,0.385223
1340.0,-4.13862e-65,-1.54414e-64,3.73053,0.10863,0.385223
1360.0,1.1711,4.32494,3.6916,0.110247,0.391196
1380.0,-0.507294,-1.89941,3.74273,0.110533,0.392232
1400.0,-1.05313,-3.97236,3.77286,0.10389,0.367178
1420.0,-1.08016,-4.07531,3.77198,0.100918,0.355986
1440.0,-0.844063,-3.18421,3.77233,0.0946433,0.332274
1460.0,-3.71125e-51,-1.38864e-50,3.74116,0.0937041,0.328744
1480.0,-0.578826,-2.17611,3.76121,0.0920386,0.322482
1500.0,7.16745e-59,2.68089e-58,3.74111,0.0907845,0.31777
1520.0,-0.894436,-3.37049,3.76967,0.0893033,0.312194
1540.0,-1.13815e-53,-4.25615e-53,3.74151,0.0885838,0.309483
1560.0,-1.48237,-5.61854,3.79076,0.0839772,0.292084
1580.0,-1.28183,-4.865,3.79495,0.0749607,0.257813
1600.0,-1.07388,-4.06816,3.78767,0.0701463,0.239595
1620.0,-2.20822,-8.46239,3.83206,0.0586614,0.195674
1640.0,1.66054e-59,6.24425e-59,3.76096,0.0553897,0.183151
1660.0,-0.503511,-1.89799,3.77204,0.0551467,0.182237
1680.0,-1.27514,-4.84338,3.79722,0.0497945,0.161957
1700.0,-1.65502,-6.31553,3.81629,0.0419756,0.132196
1720.0,-9.55223e-64,-3.59522e-63,3.76442,0.0376987,0.11588
1740.0,-2.1037e-51,-7.90517e-51,3.75799,0.0374927,0.115105
1760.0,-0.298493,-1.12371,3.76534,0.0369694,0.113135
1780.0,-0.41626,-1.56888,3.76891,0.0347667,0.104812
1800.0,5.00427e-60,1.87961e-59,3.75636,0.0329779,0.0980614
1820.0,1.59472,5.90649,3.70258,0.0346147,0.104141
1840.0,2.21303,8.12552,3.67066,0.045053,0.142622
1860.0,1.53597,5.65538,3.68166,0.0541295,0.176005
1880.0,2.46848,9.00914,3.6483,0.0653394,0.217079
1900.0,1.59433,5.85059,3.67003,0.0732921,0.246268
1920.0,1.79692,6.57445,3.65993,0.0834949,0.283612
1940.0,-4.72951e-58,-1.7569e-57,3.71562,0.0878202,0.29944
1960.0,-0.300676,-1.12197,3.73103,0.0876586,0.298837
1980.0,-1.28463,-4.84338,3.7709,0.0841304,0.285599
2000.0,-0.92023,-3.4692,3.76943,0.0777985,0.261713
2020.0,-1.74043e-47,-6.5088e-47,3.73879,0.0761601,0.255546
2040.0,-2.58229e-46,-9.65156e-46,3.73822,0.0761601,0.255546
2060.0,9.03909e-53,3.37766e-52,3.73742,0.0761601,0.255546
2080.0,-0.690479,-2.59596,3.75946,0.0749963,0.251175
2100.0,1.67861e-58,6.282e-58,3.74286,0.071913,0.239582
2120.0,-9.49855e-05,-0.000355214,3.73859,0.071913,0.239582
2140.0,-8.88208e-42,-3.32087e-41,3.74041,0.0717837,0.239098
2160.0,-0.893936,-3.36938,3.76881,0.0697056,0.231287
2180.0,0.000395533,0.00147971,3.74206,0.0685784,0.227024
2200.0,7.18982e-54,2.67986e-53,3.72602,0.0762836,0.255401
2220.0,-3.56865e-58,-1.33197e-57,3.73288,0.0762836,0.255401
2240.0,-0.286303,-1.07203,3.74521,0.0754557,0.252302
2260.0,-0.254121,-0.95154,3.74501,0.0748893,0.250181
2280.0,-2.0262,-7.71618,3.80863,0.0673304,0.221519
2300.0,-1.54742,-5.89119,3.80762,0.0570019,0.182156
2320.0,-1.46924,-5.5933,3.80624,0.0498616,0.155014
2340.0,-1.51781,-5.79024,3.81487,0.040463,0.119138
2360.0,-2.73123,-10.5317,3.85687,0.0280941,0.0716437
2380.0,-2.02959,-7.80581,3.84564,0.0152821,0.0223027
2400.0,-2.95476,-11.4591,3.87826,0.000264487,-0.0357823
2420.0,-1.70107,-6.55029,3.84967,-0.0130241,-0.0872051
2440.0,-1.96184,-7.56637,3.85629,-0.0231651,-0.126279
2460.0,-0.772666,-2.9519,3.82117,-0.0314855,-0.158282
2480.0,-0.668735,-2.54688,3.8086,-0.0343734,-0.169279
2500.0,-1.06582,-4.06732,3.8159,-0.0373625,-0.180659
2520.0,-3.50446,-13.6569,3.8959,-0.0530158,-0.241334
2540.0,-3.13448,-12.2394,3.90412,-0.0717882,-0.314614
2560.0,-2.2596,-8.78719,3.88816,-0.0872427,-0.374893
2580.0,-2.20665,-8.56141,3.88006,-0.0957155,-0.40767
2600.0,-3.23274,-12.6603,3.91467,-0.112623,-0.47372
2620.0,-2.38793,-9.31568,3.89997,-0.127886,-0.533389
2640.0,-2.5194,-9.84599,3.90627,-0.142771,-0.591592
2660.0,-2.00148,-7.78762,3.89038,-0.153175,-0.63208
2680.0,-3.0892,-12.1196,3.92325,-0.167536,-0.688217
2700.0,-3.85342,-15.2285,3.95196,-0.187443,-0.766668
2720.0,-4.29317,-17.0557,3.97457,-0.210225,-0.85696
2740.0,-4.0796,-16.2339,3.9803,-0.234604,-0.954003
2760.0,-3.28368,-13.0082,3.96098,-0.253022,-1.02702
2780.0,-3.09064,-12.2317,3.95824,-0.270424,-1.0959
2800.0,-4.01992,-15.9981,3.97992,-0.288578,-1.16784
2820.0,-3.918,-15.6244,3.98833,-0.311261,-1.25828
2840.0,-2.90001,-11.5082,3.96876,-0.3308,-1.33609
2860.0,-3.04265,-12.0815,3.9699,-0.347607,-1.40282
2880.0,-2.83398,-11.2415,3.96825,-0.364085,-1.46822
2900.0,-3.44176,-13.7165,3.98708,-0.382661,-1.54217
2920.0,-0.486847,-1.89933,3.90236,-0.395533,-1.59322
2940.0,-1.22046,-4.77121,3.9108,-0.398756,-1.60579
2960.0,-1.4876,-5.8283,3.91778,-0.407502,-1.64007
2980.0,-2.29132,-9.03101,3.94182,-0.417466,-1.67922
3000.0,-1.50739,-5.91318,3.92368,-0.428138,-1.72121
3020.0,-1.57493,-6.17987,3.92352,-0.437046,-1.75617
3040.0,2.40444e-61,9.31042e-61,3.8723,-0.443806,-1.78271
3060.0,7.74025e-05,0.000298262,3.855,-0.438748,-1.76343
3080.0,-1.81256e-55,-6.9824e-55,3.85061,-0.438748,-1.76343
3100.0,9.35955e-56,3.60348e-55,3.85097,-0.438748,-1.76343
3120.0,-8.05873e-05,-0.000310127,3.84788,-0.438823,-1.76372
3140.0,-0.298221,-1.15041,3.86028,-0.44015,-1.76884
3160.0,-1.41618,-5.51523,3.89564,-0.444126,-1.78426
3180.0,-1.44015,-5.61854,3.9008,-0.451267,-1.81207
3200.0,-2.06367,-8.10258,3.9261,-0.461254,-1.85118
3220.0,-1.6777,-6.57824,3.92044,-0.47143,-1.89111
3240.0,-0.530207,-2.06006,3.88753,-0.478249,-1.91777
3260.0,-0.443985,-1.72093,3.87714,-0.48029,-1.92569
3280.0,-0.490033,-1.89781,3.87288,-0.481455,-1.9302
3300.0,-0.000109902,-0.000423592,3.85382,-0.481917,-1.93199
3320.0,0.817439,3.12719,3.82641,-0.481213,-1.92929
3340.0,-0.000112336,-0.000432119,3.8463,-0.479178,-1.92154
3360.0,-3.80072e-32,-1.46195e-31,3.84721,-0.479254,-1.92183
3380.0,2.68443e-53,1.0331e-52,3.84931,-0.480841,-1.92796
3400.0,-0.0902034,-0.347235,3.84903,-0.480938,-1.92834
3420.0,-0.670672,-2.59596,3.87067,-0.48408,-1.94049
3440.0,-4.6689e-66,-1.79939e-65,3.85342,-0.489143,-1.96021
3460.0,0.000142676,0.000549127,3.84913,-0.488669,-1.9584
3480.0,1.27264,4.83911,3.80305,-0.483973,-1.94051
3500.0,1.06055e-61,4.06791e-61,3.83713,-0.479353,-1.92297
3520.0,6.7128e-05,0.000257499,3.83697,-0.477975,-1.91773
3540.0,0.981315,3.73731,3.80794,-0.47744,-1.91569
3560.0,5.65869e-69,2.17037e-68,3.83626,-0.474838,-1.9058
3580.0,1.19191,4.52731,3.79925,-0.472645,-1.89746
3598.0,3.75633,13.9818,3.72135,-0.460093,-1.85038