File: output/use_case_2_5.0E.csv
Time [s],Current [A],Power [W],Voltage [V],Capacity [Ah],Energy [Wh]
0.0,0.0,0.0,4.09766,0.0,0.0
0.12,0.0,0.0,4.09698,0.0,0.0
0.48,0.0,0.0,4.09482,0.0,0.0
1.92,0.0,0.0,4.09577,0.0,0.0
3.92,0.0,0.0,4.09664,0.0,0.0
5.92,0.0,0.0,4.09744,0.0,0.0
7.92,0.0,0.0,4.09746,0.0,0.0
9.92,0.0,0.0,4.0966,0.0,0.0
11.92,0.0,0.0,4.0971,0.0,0.0
13.92,0.0,0.0,4.09662,0.0,0.0
15.92,0.0,0.0,4.09831,0.0,0.0
17.92,0.0,0.0,4.09704,0.0,0.0
19.92,0.0,0.0,4.09584,0.0,0.0
21.92,0.0,0.0,4.09642,0.0,0.0
23.92,0.0,0.0,4.09575,0.0,0.0
25.92,0.0,0.0,4.09707,0.0,0.0
27.92,0.0,0.0,4.09716,0.0,0.0
29.92,0.0,0.0,4.09447,0.0,0.0
31.92,0.0,0.0,4.09694,0.0,0.0
33.92,0.0,0.0,4.09513,0.0,0.0
35.92,0.0,0.0,4.09795,0.0,0.0
37.92,0.0,0.0,4.09616,0.0,0.0
39.92,0.0,0.0,4.09715,0.0,0.0
41.92,0.0,0.0,4.09684,0.0,0.0
43.92,0.0,0.0,4.09789,0.0,0.0
45.92,0.0,0.0,4.09674,0.0,0.0
47.92,0.0,0.0,4.09766,0.0,0.0
49.92,0.0,0.0,4.09607,0.0,0.0
51.92,0.0,0.0,4.09664,0.0,0.0
53.92,0.0,0.0,4.09614,0.0,0.0
55.92,0.0,0.0,4.09643,0.0,0.0
57.92,0.0,0.0,4.09849,0.0,0.0
59.92,0.0,0.0,4.09553,0.0,0.0
60,23.2379,87.51,3.7673,4.58653e-17,1.72721e-16
60.003,23.238,87.51,3.7662,1.93242e-05,7.27712e-05
60.012,23.2384,87.51,3.76666,7.72974e-05,0.000291085
60.0479,23.2399,87.51,3.76549,0.000309203,0.00116434
60.1197,23.2428,87.51,3.76503,0.000773066,0.00291085
60.2155,23.2466,87.51,3.76405,0.00139164,0.00523952
60.4071,23.2542,87.51,3.76392,0.00262915,0.00989688
60.7903,23.2693,87.51,3.76206,0.00510557,0.0192116
61.1735,23.2848,87.51,3.75738,0.00758362,0.0285263
61.7483,23.3095,87.51,3.75277,0.0113044,0.0424984
62.5147,23.3463,87.51,3.74914,0.0162724,0.0611278
63.2811,23.3879,87.51,3.74122,0.021249,0.0797572
64.0474,23.4341,87.51,3.73293,0.0262352,0.0983866
65.197,23.5111,87.51,3.72224,0.0337373,0.126331
66.7298,23.6245,87.51,3.70437,0.0437835,0.16359
68.4962,23.7654,87.51,3.6832,0.0554271,0.206527
70.0,23.8904,87.51,3.6624,0.0653952,0.243083
70.0041,0.0,0.0,4.00089,0.0653952,0.243083
70.0162,0.0,0.0,4.00181,0.0653952,0.243083
70.065,0.0,0.0,4.0002,0.0653952,0.243083
70.1299,0.0,0.0,4.00141,0.0653952,0.243083
70.2274,0.0,0.0,4.00066,0.0653952,0.243083
70.4222,0.0,0.0,4.0039,0.0653952,0.243083
70.6821,0.0,0.0,4.00616,0.0653952,0.243083
70.9419,0.0,0.0,4.00972,0.0653952,0.243083
71.3316,0.0,0.0,4.01043,0.0653952,0.243083
71.8513,0.0,0.0,4.01431,0.0653952,0.243083
72.371,0.0,0.0,4.01674,0.0653952,0.243083
72.8906,0.0,0.0,4.02191,0.0653952,0.243083
73.4103,0.0,0.0,4.02488,0.0653952,0.243083
74.4496,0.0,0.0,4.02989,0.0653952,0.243083
75.83,0.0,0.0,4.03437,0.0653952,0.243083
77.2104,0.0,0.0,4.03872,0.0653952,0.243083
78.5907,0.0,0.0,4.04374,0.0653952,0.243083
79.9711,0.0,0.0,4.04641,0.0653952,0.243083
81.3515,0.0,0.0,4.05045,0.0653952,0.243083
82.7318,0.0,0.0,4.05275,0.0653952,0.243083
84.1122,0.0,0.0,4.0571,0.0653952,0.243083
85.4925,0.0,0.0,4.05905,0.0653952,0.243083
86.8729,0.0,0.0,4.05906,0.0653952,0.243083
88.2533,0.0,0.0,4.05857,0.0653952,0.243083
90.2533,0.0,0.0,4.06458,0.0653952,0.243083
92.2533,0.0,0.0,4.06466,0.0653952,0.243083
94.2533,0.0,0.0,4.06676,0.0653952,0.243083
96.2533,0.0,0.0,4.06752,0.0653952,0.243083
98.2533,0.0,0.0,4.06886,0.0653952,0.243083
100.253,0.0,0.0,4.07264,0.0653952,0.243083
102.253,0.0,0.0,4.07248,0.0653952,0.243083
104.253,0.0,0.0,4.07543,0.0653952,0.243083
106.253,0.0,0.0,4.07572,0.0653952,0.243083
108.253,0.0,0.0,4.07734,0.0653952,0.243083
110.253,0.0,0.0,4.07774,0.0653952,0.243083
112.253,0.0,0.0,4.07888,0.0653952,0.243083
114.253,0.0,0.0,4.07906,0.0653952,0.243083
116.253,0.0,0.0,4.08033,0.0653952,0.243083
118.253,0.0,0.0,4.08146,0.0653952,0.243083
120.253,0.0,0.0,4.07989,0.0653952,0.243083
122.253,0.0,0.0,4.08265,0.0653952,0.243083
124.253,0.0,0.0,4.08249,0.0653952,0.243083
126.253,0.0,0.0,4.08395,0.0653952,0.243083
128.253,0.0,0.0,4.08459,0.0653952,0.243083
130.253,0.0,0.0,4.08519,0.0653952,0.243083
132.253,0.0,0.0,4.0844,0.0653952,0.243083
134.253,0.0,0.0,4.08437,0.0653952,0.243083
136.253,0.0,0.0,4.0842,0.0653952,0.243083
138.253,0.0,0.0,4.08585,0.0653952,0.243083
140.253,0.0,0.0,4.08672,0.0653952,0.243083
142.253,0.0,0.0,4.08642,0.0653952,0.243083
144.253,0.0,0.0,4.08615,0.0653952,0.243083
146.253,0.0,0.0,4.0866,0.0653952,0.243083
148.253,0.0,0.0,4.08545,0.0653952,0.243083
150.253,0.0,0.0,4.08614,0.0653952,0.243083
152.253,0.0,0.0,4.0875,0.0653952,0.243083
154.253,0.0,0.0,4.08959,0.0653952,0.243083
156.253,0.0,0.0,4.08934,0.0653952,0.243083
158.253,0.0,0.0,4.08762,0.0653952,0.243083
160.253,0.0,0.0,4.08916,0.0653952,0.243083
162.253,0.0,0.0,4.08996,0.0653952,0.243083
164.253,0.0,0.0,4.08959,0.0653952,0.243083
166.253,0.0,0.0,4.08926,0.0653952,0.243083
168.253,0.0,0.0,4.08757,0.0653952,0.243083
170.253,0.0,0.0,4.0911,0.0653952,0.243083
172.253,0.0,0.0,4.09194,0.0653952,0.243083
174.253,0.0,0.0,4.08745,0.0653952,0.243083
176.253,0.0,0.0,4.08964,0.0653952,0.243083
178.253,0.0,0.0,4.0883,0.0653952,0.243083
180.253,0.0,0.0,4.09072,0.0653952,0.243083
182.253,0.0,0.0,4.09066,0.0653952,0.243083
184.253,0.0,0.0,4.09043,0.0653952,0.243083
186.253,0.0,0.0,4.09034,0.0653952,0.243083
188.253,0.0,0.0,4.09108,0.0653952,0.243083
190.253,0.0,0.0,4.09114,0.0653952,0.243083
192.253,0.0,0.0,4.09117,0.0653952,0.243083
194.253,0.0,0.0,4.09174,0.0653952,0.243083
196.253,0.0,0.0,4.09232,0.0653952,0.243083
198.253,0.0,0.0,4.09219,0.0653952,0.243083
200.253,0.0,0.0,4.09121,0.0653952,0.243083
202.253,0.0,0.0,4.09146,0.0653952,0.243083
204.253,0.0,0.0,4.09109,0.0653952,0.243083
206.253,0.0,0.0,4.09091,0.0653952,0.243083
208.253,0.0,0.0,4.09187,0.0653952,0.243083
210.253,0.0,0.0,4.0923,0.0653952,0.243083
212.253,0.0,0.0,4.09183,0.0653952,0.243083
214.253,0.0,0.0,4.09293,0.0653952,0.243083
216.253,0.0,0.0,4.09077,0.0653952,0.243083
218.253,0.0,0.0,4.0905,0.0653952,0.243083
220.253,0.0,0.0,4.09345,0.0653952,0.243083
222.253,0.0,0.0,4.09108,0.0653952,0.243083
224.253,0.0,0.0,4.09241,0.0653952,0.243083
226.253,0.0,0.0,4.09256,0.0653952,0.243083
228.253,0.0,0.0,4.09219,0.0653952,0.243083
230.253,0.0,0.0,4.09274,0.0653952,0.243083
232.253,0.0,0.0,4.09288,0.0653952,0.243083
234.253,0.0,0.0,4.09227,0.0653952,0.243083
236.253,0.0,0.0,4.09192,0.0653952,0.243083
238.253,0.0,0.0,4.09217,0.0653952,0.243083
240.253,0.0,0.0,4.09183,0.0653952,0.243083
242.253,0.0,0.0,4.09103,0.0653952,0.243083
244.253,0.0,0.0,4.09077,0.0653952,0.243083
246.253,0.0,0.0,4.09202,0.0653952,0.243083
248.253,0.0,0.0,4.09402,0.0653952,0.243083
250.253,0.0,0.0,4.09283,0.0653952,0.243083
252.253,0.0,0.0,4.09147,0.0653952,0.243083
254.253,0.0,0.0,4.09154,0.0653952,0.243083
256.253,0.0,0.0,4.09461,0.0653952,0.243083
258.253,0.0,0.0,4.09087,0.0653952,0.243083
260.253,0.0,0.0,4.09373,0.0653952,0.243083
262.253,0.0,0.0,4.09159,0.0653952,0.243083
264.253,0.0,0.0,4.09199,0.0653952,0.243083
266.253,0.0,0.0,4.09311,0.0653952,0.243083
268.253,0.0,0.0,4.0924,0.0653952,0.243083
270.253,0.0,0.0,4.09188,0.0653952,0.243083
272.253,0.0,0.0,4.09208,0.0653952,0.243083
274.253,0.0,0.0,4.09183,0.0653952,0.243083
276.253,0.0,0.0,4.09307,0.0653952,0.243083
278.253,0.0,0.0,4.09104,0.0653952,0.243083
280.253,0.0,0.0,4.09307,0.0653952,0.243083
282.253,0.0,0.0,4.0925,0.0653952,0.243083
284.253,0.0,0.0,4.093,0.0653952,0.243083
286.253,0.0,0.0,4.09319,0.0653952,0.243083
288.253,0.0,0.0,4.09314,0.0653952,0.243083
290.253,0.0,0.0,4.09351,0.0653952,0.243083
292.253,0.0,0.0,4.09244,0.0653952,0.243083
294.253,0.0,0.0,4.0922,0.0653952,0.243083
296.253,0.0,0.0,4.09238,0.0653952,0.243083
298.253,0.0,0.0,4.093,0.0653952,0.243083
300.253,0.0,0.0,4.09423,0.0653952,0.243083
302.253,0.0,0.0,4.09382,0.0653952,0.243083
304.253,0.0,0.0,4.09255,0.0653952,0.243083
306.253,0.0,0.0,4.09124,0.0653952,0.243083
308.253,0.0,0.0,4.09322,0.0653952,0.243083
310.253,0.0,0.0,4.09182,0.0653952,0.243083
312.253,0.0,0.0,4.09261,0.0653952,0.243083
314.253,0.0,0.0,4.0935,0.0653952,0.243083
316.253,0.0,0.0,4.09373,0.0653952,0.243083
318.253,0.0,0.0,4.09171,0.0653952,0.243083
320.253,0.0,0.0,4.09166,0.0653952,0.243083
322.253,0.0,0.0,4.09126,0.0653952,0.243083
324.253,0.0,0.0,4.09104,0.0653952,0.243083
326.253,0.0,0.0,4.09273,0.0653952,0.243083
328.253,0.0,0.0,4.0948,0.0653952,0.243083
330.253,0.0,0.0,4.0931,0.0653952,0.243083
332.253,0.0,0.0,4.09279,0.0653952,0.243083
334.253,0.0,0.0,4.09133,0.0653952,0.243083
336.253,0.0,0.0,4.09172,0.0653952,0.243083
338.253,0.0,0.0,4.09341,0.0653952,0.243083
340.253,0.0,0.0,4.09241,0.0653952,0.243083
342.253,0.0,0.0,4.09301,0.0653952,0.243083
344.253,0.0,0.0,4.09194,0.0653952,0.243083
346.253,0.0,0.0,4.09363,0.0653952,0.243083
348.253,0.0,0.0,4.09334,0.0653952,0.243083
350.253,0.0,0.0,4.09376,0.0653952,0.243083
352.253,0.0,0.0,4.09392,0.0653952,0.243083
354.253,0.0,0.0,4.09246,0.0653952,0.243083
356.253,0.0,0.0,4.09198,0.0653952,0.243083
358.253,0.0,0.0,4.09424,0.0653952,0.243083
360.253,0.0,0.0,4.09434,0.0653952,0.243083
362.253,0.0,0.0,4.092,0.0653952,0.243083
364.253,0.0,0.0,4.09337,0.0653952,0.243083
366.253,0.0,0.0,4.09274,0.0653952,0.243083
368.253,0.0,0.0,4.09442,0.0653952,0.243083
370.0,0.0,0.0,4.09258,0.0653952,0.243083